EXPLAIN
TAG	EISPOT
TITLE	LABEL	Potentiostatic EIS	Test &Identifier
DATE	LABEL	10/12/2019	Date
TIME	LABEL	10:57:57	Time
NOTES	NOTES	1	&Notes...
	
PSTAT	PSTAT	REF600-11020	Potentiostat
VDC	POTEN	0.00000E+000	T	DC &Voltage (V)
FREQINIT	QUANT	1.00000E+006	Initial Fre&q. (Hz)
FREQFINAL	QUANT	1.00000E+000	Final Fre&q. (Hz)
PTSPERDEC	QUANT	1.00000E+001	Points/&decade
VAC	QUANT	2.50000E+001	AC &Voltage (mV rms)
AREA	QUANT	1.00000E-002	&Area (cm^2)
CONDIT	TWOPARAM	T	5.00000E+000	0.00000E+000	Conditionin&g	Time(s)	E(V)
DELAY	TWOPARAM	T	5.00000E+000	0.00000E+000	Init. De&lay	Time(s)	Stab.(mV/s)
SPEED	SELECTOR	1	&Optimize for:
ZGUESS	QUANT	1.00000E+004	E&stimated Z (ohms)
OCVCURVE	TABLE	19
	Pt	T	Vf	Vm	Ach	Over
	#	s	V vs. Ref.	V	V	bits
	0	0.258333	6.69794E-003	6.69794E-003	5.64699E-004	...........
	1	0.516667	6.69549E-003	6.57011E-003	5.57599E-004	...........
	2	0.775	6.68114E-003	6.48225E-003	5.51099E-004	...........
	3	1.03333	6.64254E-003	6.39337E-003	5.56799E-004	...........
	4	1.29167	6.57840E-003	6.37006E-003	5.64266E-004	...........
	5	1.55	6.50171E-003	6.27634E-003	5.66199E-004	...........
	6	1.80833	6.42678E-003	6.24638E-003	5.64632E-004	...........
	7	2.06667	6.36030E-003	6.23550E-003	5.69132E-004	...........
	8	2.325	6.30574E-003	6.22638E-003	5.64432E-004	...........
	9	2.58333	6.26652E-003	6.22712E-003	5.57166E-004	...........
	10	2.84167	6.24293E-003	6.23008E-003	5.62466E-004	...........
	11	3.1	6.23160E-003	6.22911E-003	5.65232E-004	...........
	12	3.35833	6.22794E-003	6.23138E-003	5.58666E-004	...........
	13	3.61667	6.22827E-003	6.24695E-003	5.65532E-004	...........
	14	3.875	6.23119E-003	6.25749E-003	5.65966E-004	...........
	15	4.13333	6.23691E-003	6.26271E-003	5.67966E-004	...........
	16	4.39167	6.24515E-003	6.28102E-003	5.56832E-004	...........
	17	4.65	6.25500E-003	6.28895E-003	5.57399E-004	...........
	18	4.90833	6.26595E-003	6.30655E-003	5.61066E-004	...........
EOC	QUANT	0.006266	Open Circuit (V)
PSTATMODEL	IQUANT	4	Pstat Model
PSTATSECTION	LABEL	REF600-11020	Pstat Section
PSTATSERIALNO	LABEL	11020	Pstat Serial Number
CTRLMODE	IQUANT	1	Control Mode
IESTAB	IQUANT	0	I/E Stability
CASPEED	IQUANT	1	Control Amp Speed
CONVENTION	IQUANT	1	Current Convention
ICHRANGE	IQUANT	2	Ich Range
ICHRANGEMODE	TOGGLE	F	Ich Auto Range
ICHOFFSETENABLE	TOGGLE	T	Ich Offset Enable
ICHOFFSET	QUANT	0	Ich Offset (V)
ICHFILTER	IQUANT	3	Ich Filter
VCHRANGE	IQUANT	2	Vch Range
VCHRANGEMODE	TOGGLE	F	Vch Auto Range
VCHOFFSETENABLE	TOGGLE	T	Vch Offset Enable
VCHOFFSET	QUANT	0	Vch Offset (V)
VCHFILTER	IQUANT	3	Vch Filter
ACHRANGE	IQUANT	2	Ach Range
ACHOFFSETENABLE	TOGGLE	F	Ach Offset Enable
ACHOFFSET	QUANT	0	Ach Offset (V)
ACHFILTER	IQUANT	3	Ach Filter
IERANGELOWERLIMIT	IQUANT	1	I/E Range Lower Limit
IERANGEMODE	TOGGLE	F	I/E AutoRange
IERANGE	IQUANT	6	I/E Range
POSFEEDENABLE	TOGGLE	F	Positive Feedback IR Comp
POSFEEDRESISTANCE	QUANT	0	Positive Feedback Resistance (ohm)
ACHSELECT	IQUANT	0	Ach Select
CABLEID	IQUANT	14	Cable ID
DCCALDATE	LABEL	8/19/2019	DC Calibration Date
ACCALDATE	LABEL	8/19/2019	AC Calibration Date
THERMOSELECT	IQUANT	1	Thermo Select
FRAMEWORKVERSION	QUANT	6.33	Framework Version
INSTRUMENTVERSION	LABEL	3.50	Instrument Version
ZCURVE	TABLE
	Pt	Time	Freq	Zreal	Zimag	Zsig	Zmod	Zphz	Idc	Vdc	IERange
	#	s	Hz	ohm	ohm	V	ohm	°	A	V	#
	0	2	1000078	2489.168	-1722.531	1	3027.056	-34.68365	-2.494893E-007	0.0087198	8
	1	3	794390.6	2815.933	-1653.89	1	3265.705	-30.42712	1.953922E-006	0.0077205	8
	2	5	630984.4	3114.239	-1553.769	1	3480.328	-26.51571	1.189887E-006	0.0076259	8
	3	6	501234.4	3372.628	-1437.47	1	3666.188	-23.0845	-8.564057E-007	0.008215	8
	4	7	398109.4	3602.036	-1294.825	1	3827.693	-19.772	5.174187E-007	0.0077262	8
	5	9	316265.6	3773.855	-1160.699	1	3948.316	-17.09598	3.483312E-006	0.0072942	8
	6	10	251203.1	3952.601	-1025.629	1	4083.499	-14.54642	6.924199E-007	0.0077947	8
	7	11	199546.9	4057.71	-902.3717	1	4156.836	-12.53767	1.39107E-006	0.0075226	8
	8	13	158578.1	4162.157	-796.808	1	4237.742	-10.83764	-8.343854E-007	0.0077936	8
	9	14	125953.1	4267.945	-639.9844	1	4315.662	-8.528043	1.248309E-006	0.0053559	7
	10	15	100078.1	4311.95	-587.5256	1	4351.792	-7.759067	7.367397E-009	0.0077931	7
	11	17	79453.13	4364.198	-536.0198	1	4396.992	-7.002117	-2.312114E-008	0.0077942	7
	12	18	63140.62	4412.175	-496.2104	1	4439.99	-6.416744	4.211123E-008	0.0077602	7
	13	20	50203.12	4455.653	-468.7796	1	4480.246	-6.005998	-8.969216E-009	0.0077948	7
	14	21	39890.62	4495.619	-451.7148	1	4518.255	-5.737759	9.479024E-008	0.0077158	7
	15	22	31640.63	4534.672	-445.8569	1	4556.538	-5.615373	-4.042035E-008	0.007896	7
	16	24	25171.88	4572.562	-449.9956	1	4594.651	-5.620502	7.477814E-008	0.0076486	7
	17	25	20015.62	4600.412	-447.2513	1	4622.102	-5.552836	-6.730997E-008	0.0080143	7
	18	26	15890.62	4645.909	-491.4577	1	4671.831	-6.038456	-8.267532E-009	0.0077964	7
	19	28	12609.37	4685.351	-531.6166	1	4715.414	-6.473299	-4.339577E-008	0.0078518	7
	20	29	10078.13	4722.015	-585.0263	1	4758.118	-7.062577	-1.799482E-009	0.0077514	7
	21	30	8015.625	4772.963	-658.3089	1	4818.148	-7.85295	-6.223506E-009	0.0077903	7
	22	32	6328.125	4802.18	-753.9196	1	4861	-8.922338	-8.712923E-009	0.0077882	7
	23	33	5015.625	4846.977	-875.7086	1	4925.449	-10.24121	-7.884679E-009	0.0077853	7
	24	34	3984.375	4895.843	-1044.724	1	5006.069	-12.04568	-6.650046E-008	0.0080085	7
	25	36	3170.956	4949.093	-1218.529	1	5096.895	-13.83183	4.503973E-008	0.0077539	7
	26	37	2527.573	5009.563	-1453.535	1	5216.175	-16.18019	7.499378E-008	0.0076465	7
	27	38	1976.103	5088.033	-1766.131	1	5385.842	-19.14264	-8.877015E-009	0.0077881	7
	28	40	1577.524	5168.437	-2132.43	1	5591.064	-22.42041	-4.378956E-008	0.0078533	7
	29	41	1265.625	5265.721	-2552.787	1	5851.883	-25.8638	-4.650399E-008	0.0078568	7
	30	42	998.264	5389.247	-3119.368	1	6226.913	-30.06283	-6.570941E-008	0.007893	7
	31	44	796.875	5519.864	-3782.667	1	6691.597	-34.42216	1.645769E-008	0.0078818	7
	32	45	627.7902	5703.653	-4646.784	1	7356.919	-39.16981	-6.96632E-009	0.0077905	7
	33	47	505.5147	5900.904	-5604.103	1	8137.975	-43.52224	-1.734793E-009	0.0077388	7
	34	48	397.9953	6170.87	-6908.099	1	9262.908	-48.2262	6.814334E-009	0.0078144	7
	35	49	315.5048	6508.502	-8470.356	1	10682.11	-52.46183	1.420404E-009	0.0077538	6
	36	51	252.4038	6922.479	-10307.69	1	12416.49	-56.11534	1.430155E-009	0.0077518	6
	37	52	198.6229	7496.148	-12723.96	1	14767.92	-59.49612	8.863763E-010	0.0077534	6
	38	53	158.3615	8204.338	-15515	1	17550.68	-62.13009	9.026925E-010	0.007745	6
	39	55	125.558	9167.285	-19000.51	1	21096.41	-64.24382	1.279613E-009	0.007749	6
	40	56	100.4464	10371.13	-23021.42	1	25249.67	-65.74847	1.364332E-009	0.0077511	6
	41	57	79.00281	12178.89	-28267.42	1	30779.42	-66.69142	8.796112E-010	0.0077516	6
	42	59	63.3446	14106.79	-33803.68	1	36629.09	-67.34848	7.739251E-010	0.0077486	6
	43	60	49.86702	17536.87	-41505.67	1	45058.43	-67.09509	8.509674E-010	0.0077463	6
	44	62	39.72458	21164.45	-49810.09	1	54120.04	-66.97922	9.853599E-010	0.0077556	6
	45	63	31.6723	26280.66	-59244.85	1	64812.23	-66.07821	8.946142E-010	0.0077516	6
	46	64	24.93351	32901.27	-70732.91	1	78010.51	-65.0546	2.132712E-010	0.0077523	6
	47	66	19.86229	40884.93	-82886.55	1	92421.63	-63.74454	-2.568727E-011	0.0077558	6
	48	67	15.83615	50483.11	-96470	1	108880.7	-62.37678	1.54426E-009	0.0077575	5
	49	68	12.40079	63931.2	-111943.1	1	128912.6	-60.26912	1.71365E-009	0.0077582	5
	50	70	9.93114	77258.01	-127650.9	1	149209.7	-58.81646	8.46181E-010	0.0077572	5
	51	71	7.944915	92506.93	-144244.6	1	171359.4	-57.32714	-7.187918E-010	0.0077593	5
	52	73	6.317385	110058.9	-163132.6	1	196787.3	-55.99407	-2.225025E-010	0.0077559	5
	53	75	5.008013	129544.8	-184337	1	225304.2	-54.90197	-2.126471E-010	0.0077534	5
	54	78	3.945707	151042.1	-208113.9	1	257148	-54.02911	4.931514E-010	0.0077643	5
	55	80	3.158693	173094.8	-234030.5	1	291087.8	-53.51245	-1.231031E-010	0.0077592	5
	56	83	2.504006	197576.2	-264940.3	1	330499.2	-53.28669	3.88614E-010	0.0077586	5
	57	86	1.998082	222722.3	-300055.1	1	373682.1	-53.41456	-2.035306E-010	0.0077931	5
	58	89	1.584686	251908.1	-343607.3	1	426055.9	-53.75382	1.808916E-010	0.0078084	5
	59	93	1.266892	282190	-392250.6	1	483209.8	-54.26829	-1.674412E-010	0.00779	5
	60	97	0.999041	318180.2	-455010.1	1	555223.2	-55.03561	2.994299E-010	0.0077563	5
