EXPLAIN
TAG	EISPOT
TITLE	LABEL	Potentiostatic EIS	Test &Identifier
DATE	LABEL	11/3/2019	Date
TIME	LABEL	11:38:45	Time
NOTES	NOTES	1	&Notes...
	
PSTAT	PSTAT	REF600-11020	Potentiostat
VDC	POTEN	0.00000E+000	T	DC &Voltage (V)
FREQINIT	QUANT	1.00000E+006	Initial Fre&q. (Hz)
FREQFINAL	QUANT	1.00000E+000	Final Fre&q. (Hz)
PTSPERDEC	QUANT	1.00000E+001	Points/&decade
VAC	QUANT	2.50000E+001	AC &Voltage (mV rms)
AREA	QUANT	1.00000E-002	&Area (cm^2)
CONDIT	TWOPARAM	T	5.00000E+000	0.00000E+000	Conditionin&g	Time(s)	E(V)
DELAY	TWOPARAM	T	5.00000E+000	0.00000E+000	Init. De&lay	Time(s)	Stab.(mV/s)
SPEED	SELECTOR	1	&Optimize for:
ZGUESS	QUANT	1.00000E+005	E&stimated Z (ohms)
OCVCURVE	TABLE	19
	Pt	T	Vf	Vm	Ach	Over
	#	s	V vs. Ref.	V	V	bits
	0	0.258333	4.86996E-003	4.86996E-003	5.42699E-004	...........
	1	0.516667	4.86778E-003	4.75577E-003	5.50166E-004	...........
	2	0.775	4.85478E-003	4.66850E-003	5.47799E-004	...........
	3	1.03333	4.81949E-003	4.59197E-003	5.38766E-004	...........
	4	1.29167	4.75949E-003	4.51638E-003	5.44299E-004	...........
	5	1.55	4.68416E-003	4.45432E-003	5.43133E-004	...........
	6	1.80833	4.60554E-003	4.39641E-003	5.45499E-004	...........
	7	2.06667	4.53136E-003	4.34356E-003	5.49299E-004	...........
	8	2.325	4.46441E-003	4.29317E-003	5.43799E-004	...........
	9	2.58333	4.40448E-003	4.25308E-003	5.48133E-004	...........
	10	2.84167	4.35055E-003	4.21080E-003	5.49033E-004	...........
	11	3.1	4.30165E-003	4.16797E-003	5.45133E-004	...........
	12	3.35833	4.25652E-003	4.12758E-003	5.42233E-004	...........
	13	3.61667	4.21363E-003	4.08676E-003	5.43933E-004	...........
	14	3.875	4.17212E-003	4.05762E-003	5.45733E-004	...........
	15	4.13333	4.13235E-003	4.02885E-003	5.37333E-004	...........
	16	4.39167	4.09563E-003	4.00876E-003	5.42299E-004	...........
	17	4.65	4.06307E-003	3.98282E-003	5.47666E-004	...........
	18	4.90833	4.03464E-003	3.96044E-003	5.39599E-004	...........
EOC	QUANT	0.0040346	Open Circuit (V)
PSTATMODEL	IQUANT	4	Pstat Model
PSTATSECTION	LABEL	REF600-11020	Pstat Section
PSTATSERIALNO	LABEL	11020	Pstat Serial Number
CTRLMODE	IQUANT	1	Control Mode
IESTAB	IQUANT	0	I/E Stability
CASPEED	IQUANT	1	Control Amp Speed
CONVENTION	IQUANT	1	Current Convention
ICHRANGE	IQUANT	2	Ich Range
ICHRANGEMODE	TOGGLE	F	Ich Auto Range
ICHOFFSETENABLE	TOGGLE	T	Ich Offset Enable
ICHOFFSET	QUANT	0	Ich Offset (V)
ICHFILTER	IQUANT	3	Ich Filter
VCHRANGE	IQUANT	2	Vch Range
VCHRANGEMODE	TOGGLE	F	Vch Auto Range
VCHOFFSETENABLE	TOGGLE	T	Vch Offset Enable
VCHOFFSET	QUANT	0	Vch Offset (V)
VCHFILTER	IQUANT	3	Vch Filter
ACHRANGE	IQUANT	2	Ach Range
ACHOFFSETENABLE	TOGGLE	F	Ach Offset Enable
ACHOFFSET	QUANT	0	Ach Offset (V)
ACHFILTER	IQUANT	3	Ach Filter
IERANGELOWERLIMIT	IQUANT	1	I/E Range Lower Limit
IERANGEMODE	TOGGLE	F	I/E AutoRange
IERANGE	IQUANT	4	I/E Range
POSFEEDENABLE	TOGGLE	F	Positive Feedback IR Comp
POSFEEDRESISTANCE	QUANT	0	Positive Feedback Resistance (ohm)
ACHSELECT	IQUANT	0	Ach Select
CABLEID	IQUANT	14	Cable ID
DCCALDATE	LABEL	8/19/2019	DC Calibration Date
ACCALDATE	LABEL	8/19/2019	AC Calibration Date
THERMOSELECT	IQUANT	1	Thermo Select
FRAMEWORKVERSION	QUANT	6.33	Framework Version
INSTRUMENTVERSION	LABEL	3.50	Instrument Version
ZCURVE	TABLE
	Pt	Time	Freq	Zreal	Zimag	Zsig	Zmod	Zphz	Idc	Vdc	IERange
	#	s	Hz	ohm	ohm	V	ohm	°	A	V	#
	0	1	1000078	2037.755	-1034.843	1	2285.464	-26.92304	1.488304E-006	0.0050738	8
	1	3	794390.6	2209.907	-955.361	1	2407.572	-23.37922	-3.921491E-006	0.005723	8
	2	4	630984.4	2366.454	-864.9584	1	2519.575	-20.07777	-2.175386E-006	0.0055933	8
	3	5	501234.4	2482.099	-772.4812	1	2599.527	-17.28724	4.781321E-006	0.0055216	8
	4	7	398109.4	2582.45	-688.241	1	2672.587	-14.92288	1.596732E-006	0.0058368	8
	5	8	316265.6	2667.684	-604.4999	1	2735.317	-12.76766	-6.275376E-006	0.0064251	8
	6	9	251203.1	2721.813	-539.162	1	2774.7	-11.20463	-9.212734E-008	0.0059679	8
	7	11	199546.9	2774.214	-491.366	1	2817.394	-10.044	5.777957E-006	0.0048084	8
	8	12	158578.1	2849.159	-443.8846	1	2883.53	-8.855206	6.855566E-006	0.0047339	8
	9	13	125953.1	2880.742	-365.854	1	2903.88	-7.237813	-1.467396E-006	0.0092253	7
	10	15	100078.1	2918.335	-349.8823	1	2939.234	-6.83662	7.213991E-007	0.0038096	7
	11	16	79453.13	2947.718	-339.8286	1	2967.241	-6.576331	5.885435E-007	0.0056356	7
	12	18	63140.62	2983.694	-339.9641	1	3002.999	-6.500286	5.908938E-007	0.0056357	7
	13	19	50203.12	3021.067	-342.923	1	3040.468	-6.475956	5.9253E-007	0.0056303	7
	14	20	39890.62	3056.72	-349.0682	1	3076.587	-6.514783	-1.157099E-006	0.006511	7
	15	22	31640.63	3096.187	-363.2187	1	3117.419	-6.690879	7.219538E-007	0.0037997	7
	16	23	25171.88	3133.929	-380.5439	1	3156.948	-6.923366	9.718431E-008	0.0041886	7
	17	24	20015.62	3173.277	-404.5445	1	3198.959	-7.265151	7.953794E-007	0.0052335	7
	18	26	15890.62	3211.125	-436.5871	1	3240.669	-7.742504	-2.578452E-007	0.0067297	7
	19	27	12609.37	3254.526	-477.9323	1	3289.431	-8.354262	1.020673E-006	0.0040708	7
	20	28	10078.13	3292.916	-530.7634	1	3335.417	-9.156377	9.159522E-007	0.0038712	7
	21	30	8015.625	3338.628	-594.0372	1	3391.064	-10.08897	7.959218E-007	0.0052343	7
	22	31	6328.125	3382.236	-673.6112	1	3448.663	-11.26373	-7.010979E-007	0.0053333	7
	23	33	5015.625	3431.371	-772.8195	1	3517.322	-12.69248	-1.158715E-006	0.0065181	7
	24	34	3984.375	3484.753	-896.0242	1	3598.105	-14.41992	1.02108E-006	0.004076	7
	25	35	3170.956	3535.769	-1047.309	1	3687.617	-16.49951	-1.030801E-006	0.0070138	7
	26	37	2527.573	3595.167	-1235.121	1	3801.414	-18.96017	9.648323E-007	0.0047702	7
	27	38	1976.103	3662.592	-1490.154	1	3954.129	-22.13933	1.020421E-006	0.004072	7
	28	39	1577.524	3735.224	-1779.121	1	4137.291	-25.46889	7.227555E-007	0.0037926	7
	29	41	1265.625	3806.711	-2127.982	1	4361.119	-29.20554	9.752185E-008	0.0041844	7
	30	42	998.264	3901.778	-2591.01	1	4683.717	-33.5865	-1.161784E-006	0.0068606	7
	31	43	796.875	4015.021	-3138.133	1	5095.908	-38.01112	-7.005838E-007	0.0053289	7
	32	45	627.7902	4161.56	-3860.233	1	5676.265	-42.84879	5.946271E-007	0.005621	7
	33	46	505.5147	4321.958	-4657.246	1	6353.681	-47.13845	-3.028202E-007	0.0046713	7
	34	48	397.9953	4549.302	-5740.954	1	7324.937	-51.60565	3.689433E-009	0.0054857	7
	35	49	315.5048	4827.247	-7038.397	1	8534.715	-55.55593	5.960762E-009	0.005489	7
	36	50	252.4038	5169.721	-8562.648	1	10002.25	-58.87841	2.372517E-009	0.0054873	7
	37	52	198.6229	5643.875	-10565.06	1	11978.06	-61.88879	1.113318E-009	0.0054241	6
	38	53	158.3615	6225.117	-12878.53	1	14304.15	-64.20219	5.615913E-011	0.0054303	6
	39	54	125.558	7003.418	-15760.55	1	17246.53	-66.04137	2.008405E-010	0.0054361	6
	40	56	100.4464	7982.229	-19128.86	1	20727.5	-67.34985	5.064293E-010	0.0054191	6
	41	57	79.00281	9316.167	-23469.36	1	25250.78	-68.34939	4.590097E-010	0.0054217	6
	42	59	63.3446	10834.56	-28133.67	1	30147.82	-68.93781	6.12967E-010	0.0054225	6
	43	60	49.86702	13588.26	-34351.34	1	36941.25	-68.41788	-8.160431E-010	0.005424	6
	44	61	39.72458	16451.09	-41406.62	1	44554.99	-68.33179	9.337912E-010	0.0054325	6
	45	63	31.6723	20365.13	-49618.41	1	53635.11	-67.68504	-6.209391E-011	0.0054297	6
	46	64	24.93351	25701.53	-59390.08	1	64712.83	-66.59907	-2.824588E-010	0.0054252	6
	47	66	19.86229	32089.66	-69960.65	1	76969.07	-65.35995	-5.737654E-010	0.0054291	6
	48	67	15.83615	40676.14	-82241.56	1	91750.88	-63.6833	-1.468333E-009	0.0054184	6
	49	69	12.40079	50616.08	-95484	1	108070.2	-62.07193	1.222699E-009	0.00543	5
	50	70	9.93114	61265.42	-109514.6	1	125486.6	-60.77617	5.127085E-010	0.0054373	5
	51	72	7.944915	73302.34	-125026.9	1	144930.9	-59.61722	4.634733E-010	0.0054281	5
	52	73	6.317385	87302.37	-141412.9	1	166190.6	-58.31056	7.29463E-010	0.0054427	5
	53	75	5.008013	102395.4	-160978.5	1	190784.9	-57.54032	4.293091E-010	0.005447	5
	54	78	3.945707	118854.6	-184411.6	1	219394.8	-57.19793	1.783128E-010	0.0054342	5
	55	81	3.158693	135211.3	-209965.1	1	249734.7	-57.21966	1.741194E-010	0.0054428	5
	56	84	2.504006	153597.5	-242140.3	1	286747.4	-57.61171	1.737326E-010	0.005425	5
	57	87	1.998082	173027.6	-279380.3	1	328621.3	-58.22898	-9.403819E-011	0.0054579	5
	58	90	1.584686	195585.9	-326512.5	1	380610.4	-59.07775	1.952893E-010	0.0054739	5
	59	93	1.266892	220579.7	-379913.5	1	439305.9	-59.86034	-3.987483E-011	0.0054673	5
	60	98	0.999041	250397.8	-449040.9	1	514136.9	-60.85474	2.075659E-010	0.0054127	5
