EXPLAIN
TAG	EISPOT
TITLE	LABEL	Potentiostatic EIS	Test &Identifier
DATE	LABEL	10/12/2019	Date
TIME	LABEL	10:39:15	Time
NOTES	NOTES	1	&Notes...
	
PSTAT	PSTAT	REF600-11020	Potentiostat
VDC	POTEN	0.00000E+000	T	DC &Voltage (V)
FREQINIT	QUANT	1.00000E+006	Initial Fre&q. (Hz)
FREQFINAL	QUANT	1.00000E+000	Final Fre&q. (Hz)
PTSPERDEC	QUANT	1.00000E+001	Points/&decade
VAC	QUANT	2.50000E+001	AC &Voltage (mV rms)
AREA	QUANT	1.00000E-002	&Area (cm^2)
CONDIT	TWOPARAM	T	5.00000E+000	0.00000E+000	Conditionin&g	Time(s)	E(V)
DELAY	TWOPARAM	T	5.00000E+000	0.00000E+000	Init. De&lay	Time(s)	Stab.(mV/s)
SPEED	SELECTOR	1	&Optimize for:
ZGUESS	QUANT	1.00000E+004	E&stimated Z (ohms)
OCVCURVE	TABLE	19
	Pt	T	Vf	Vm	Ach	Over
	#	s	V vs. Ref.	V	V	bits
	0	0.258333	6.89380E-003	6.89380E-003	5.74565E-004	...........
	1	0.516667	6.89327E-003	6.86560E-003	5.79066E-004	...........
	2	0.775	6.89023E-003	6.85312E-003	5.79499E-004	...........
	3	1.03333	6.88283E-003	6.85581E-003	5.73666E-004	...........
	4	1.29167	6.87235E-003	6.84775E-003	5.73399E-004	...........
	5	1.55	6.86272E-003	6.86623E-003	5.71199E-004	...........
	6	1.80833	6.85756E-003	6.88003E-003	5.79199E-004	...........
	7	2.06667	6.85893E-003	6.89689E-003	5.77932E-004	...........
	8	2.325	6.86714E-003	6.92527E-003	5.73466E-004	...........
	9	2.58333	6.88145E-003	6.95782E-003	5.80932E-004	...........
	10	2.84167	6.90131E-003	6.98450E-003	5.84432E-004	...........
	11	3.1	6.92595E-003	7.01631E-003	5.81099E-004	...........
	12	3.35833	6.95386E-003	7.05000E-003	5.85632E-004	...........
	13	3.61667	6.98380E-003	7.08457E-003	5.83532E-004	...........
	14	3.875	7.01539E-003	7.12414E-003	5.77766E-004	...........
	15	4.13333	7.04870E-003	7.15676E-003	5.76066E-004	...........
	16	4.39167	7.08329E-003	7.18364E-003	5.81699E-004	...........
	17	4.65	7.11774E-003	7.21142E-003	5.84099E-004	...........
	18	4.90833	7.15033E-003	7.23563E-003	5.82265E-004	...........
EOC	QUANT	0.0071503	Open Circuit (V)
PSTATMODEL	IQUANT	4	Pstat Model
PSTATSECTION	LABEL	REF600-11020	Pstat Section
PSTATSERIALNO	LABEL	11020	Pstat Serial Number
CTRLMODE	IQUANT	1	Control Mode
IESTAB	IQUANT	0	I/E Stability
CASPEED	IQUANT	1	Control Amp Speed
CONVENTION	IQUANT	1	Current Convention
ICHRANGE	IQUANT	2	Ich Range
ICHRANGEMODE	TOGGLE	F	Ich Auto Range
ICHOFFSETENABLE	TOGGLE	T	Ich Offset Enable
ICHOFFSET	QUANT	0	Ich Offset (V)
ICHFILTER	IQUANT	3	Ich Filter
VCHRANGE	IQUANT	2	Vch Range
VCHRANGEMODE	TOGGLE	F	Vch Auto Range
VCHOFFSETENABLE	TOGGLE	T	Vch Offset Enable
VCHOFFSET	QUANT	0	Vch Offset (V)
VCHFILTER	IQUANT	3	Vch Filter
ACHRANGE	IQUANT	2	Ach Range
ACHOFFSETENABLE	TOGGLE	F	Ach Offset Enable
ACHOFFSET	QUANT	0	Ach Offset (V)
ACHFILTER	IQUANT	3	Ach Filter
IERANGELOWERLIMIT	IQUANT	1	I/E Range Lower Limit
IERANGEMODE	TOGGLE	F	I/E AutoRange
IERANGE	IQUANT	6	I/E Range
POSFEEDENABLE	TOGGLE	F	Positive Feedback IR Comp
POSFEEDRESISTANCE	QUANT	0	Positive Feedback Resistance (ohm)
ACHSELECT	IQUANT	0	Ach Select
CABLEID	IQUANT	14	Cable ID
DCCALDATE	LABEL	8/19/2019	DC Calibration Date
ACCALDATE	LABEL	8/19/2019	AC Calibration Date
THERMOSELECT	IQUANT	1	Thermo Select
FRAMEWORKVERSION	QUANT	6.33	Framework Version
INSTRUMENTVERSION	LABEL	3.50	Instrument Version
ZCURVE	TABLE
	Pt	Time	Freq	Zreal	Zimag	Zsig	Zmod	Zphz	Idc	Vdc	IERange
	#	s	Hz	ohm	ohm	V	ohm	°	A	V	#
	0	2	1000078	2488.48	-1935.46	1	3152.545	-37.87464	3.090898E-006	0.0095066	8
	1	3	794390.6	2886.443	-1904.56	1	3458.165	-33.418	-2.114898E-006	0.0091393	8
	2	4	630984.4	3270.023	-1785.541	1	3725.749	-28.636	-4.463006E-007	0.0089899	8
	3	6	501234.4	3587.09	-1632.486	1	3941.094	-24.47029	2.216036E-006	0.0085164	8
	4	7	398109.4	3838.351	-1449.083	1	4102.777	-20.6829	1.305467E-006	0.0085667	8
	5	9	316265.6	4043.199	-1260.605	1	4235.161	-17.31664	1.338841E-006	0.0085497	8
	6	10	251203.1	4187.438	-1100.212	1	4329.562	-14.72123	-1.711091E-006	0.009185	8
	7	11	199546.9	4312.89	-938.6777	1	4413.857	-12.27864	4.191983E-007	0.0088522	8
	8	13	158578.1	4405.919	-823.0969	1	4482.144	-10.5818	-1.344255E-006	0.0091291	8
	9	14	125953.1	4489.65	-668.1467	1	4539.095	-8.464595	-6.864867E-007	0.0102434	7
	10	15	100078.1	4526.778	-586.267	1	4564.584	-7.379351	9.096004E-008	0.0087311	7
	11	17	79453.13	4572.677	-534.0453	1	4603.757	-6.661426	1.091922E-007	0.0086437	7
	12	18	63140.62	4613.307	-497.6654	1	4640.072	-6.157034	9.268216E-008	0.0087273	7
	13	19	50203.12	4651.317	-473.1459	1	4675.32	-5.80832	1.114113E-007	0.0086412	7
	14	21	39890.62	4690.112	-459.103	1	4712.528	-5.590726	-3.140302E-009	0.0087587	7
	15	22	31640.63	4726.35	-463.581	1	4749.03	-5.601902	-6.061843E-008	0.0089175	7
	16	23	25171.88	4764.393	-477.4439	1	4788.256	-5.722554	1.133568E-007	0.0086368	7
	17	25	20015.62	4813.063	-496.2031	1	4838.573	-5.886118	-1.90909E-008	0.0087875	7
	18	26	15890.62	4846.467	-542.3517	1	4876.719	-6.38521	1.129099E-007	0.0086358	7
	19	27	12609.37	4890.909	-594.0872	1	4926.858	-6.925655	-3.312562E-008	0.0088001	7
	20	29	10078.13	4935.931	-659.7984	1	4979.834	-7.613738	4.266907E-008	0.0087497	7
	21	30	8015.625	4981.245	-740.3682	1	5035.965	-8.454046	1.681087E-008	0.0087322	7
	22	31	6328.125	5040.227	-854.6804	1	5112.178	-9.6242	-3.010492E-008	0.0088028	7
	23	33	5015.625	5099.072	-990.491	1	5194.382	-10.99277	3.893733E-008	0.0086812	7
	24	34	3984.375	5163.509	-1160.206	1	5292.25	-12.66365	1.119801E-007	0.0086309	7
	25	35	3170.956	5233.465	-1361.562	1	5407.68	-14.58304	9.246337E-008	0.0087179	7
	26	37	2527.573	5309.382	-1613.663	1	5549.184	-16.90543	1.488872E-008	0.0088794	7
	27	38	1976.103	5413.766	-1946.482	1	5753.056	-19.7757	-4.55476E-008	0.0088544	7
	28	39	1577.524	5519.682	-2317.365	1	5986.407	-22.77445	4.293007E-008	0.0087477	7
	29	41	1265.625	5635.907	-2772.346	1	6280.872	-26.19293	1.678415E-008	0.0088774	7
	30	42	998.264	5787.982	-3362.927	1	6694.028	-30.15739	-2.483959E-009	0.0087436	7
	31	44	796.875	5952.854	-4043.467	1	7196.256	-34.18625	-6.385888E-009	0.0088393	7
	32	45	627.7902	6164.279	-4941.708	1	7900.558	-38.71805	-6.758258E-008	0.0088802	7
	33	46	505.5147	6384.797	-5904.381	1	8696.398	-42.7613	-4.57719E-008	0.0088526	7
	34	48	397.9953	6671.768	-7234.819	1	9841.5	-47.31853	6.098235E-009	0.0088122	7
	35	49	315.5048	7007.281	-8824.412	1	11268.2	-51.54765	4.859191E-010	0.008748	6
	36	50	252.4038	7388.712	-10700.98	1	13004	-55.37605	2.724083E-010	0.0087487	6
	37	52	198.6229	7893.609	-13188.07	1	15369.91	-59.09771	1.11022E-009	0.008745	6
	38	53	158.3615	8496.9	-16091.18	1	18196.8	-62.16384	1.088652E-009	0.0087452	6
	39	54	125.558	9272.357	-19747.26	1	21815.84	-64.84753	1.267629E-009	0.0087453	6
	40	56	100.4464	10269.77	-24044.08	1	26145.48	-66.87157	1.452728E-009	0.0087498	6
	41	57	79.00281	11584.28	-29755.03	1	31930.51	-68.72795	2.271925E-010	0.0087464	6
	42	58	63.3446	13424.85	-36393.17	1	38790.33	-69.75181	8.6394E-010	0.0087461	6
	43	60	49.86702	15482.99	-44451.73	1	47071	-70.79625	5.474137E-010	0.0087427	6
	44	61	39.72458	18738.05	-53992.83	1	57151.91	-70.86082	6.609056E-010	0.0087503	6
	45	63	31.6723	22616.25	-65547.37	1	69339.4	-70.96368	4.271795E-011	0.0087437	6
	46	64	24.93351	28426.41	-79775.96	1	84689.23	-70.38759	9.643997E-010	0.0087451	6
	47	65	19.86229	35604.6	-95839.7	1	102239.6	-69.6199	9.549048E-010	0.0087462	6
	48	67	15.83615	44895.6	-114846.4	1	123309.8	-68.64854	-1.0975E-010	0.0087453	5
	49	68	12.40079	57680.07	-137833.3	1	149415.5	-67.29181	1.135605E-009	0.0087501	5
	50	70	9.93114	72018.95	-161819.8	1	177122.5	-66.00824	3.980909E-010	0.0087494	5
	51	71	7.944915	90196.85	-188690.7	1	209140.3	-64.45153	2.698291E-010	0.0087421	5
	52	73	6.317385	112454.3	-218620.7	1	245847.5	-62.77957	6.258713E-010	0.0087336	5
	53	75	5.008013	140228.9	-252230.3	1	288590.2	-60.92788	6.733224E-011	0.0087495	5
	54	77	3.945707	172438.2	-289277.8	1	336773.8	-59.20088	1.232177E-010	0.0087512	5
	55	80	3.158693	206127	-326635.9	1	386237.4	-57.7456	3.979807E-011	0.0087423	5
	56	83	2.504006	244287.2	-369597.7	1	443033.6	-56.53712	2.365919E-010	0.0087629	5
	57	86	1.998082	283907.8	-416204.6	1	503815.4	-55.70072	3.968147E-010	0.0087427	5
	58	89	1.584686	329140.2	-471153	1	574733.3	-55.06245	6.524455E-011	0.0086977	5
	59	93	1.266892	373090.7	-532936.4	1	650552	-55.00544	2.813731E-010	0.0087371	5
	60	97	0.999041	426019.4	-612636.4	1	746201	-55.18575	-1.448433E-010	0.008734	5
