EXPLAIN
TAG	EISPOT
TITLE	LABEL	Potentiostatic EIS	Test &Identifier
DATE	LABEL	11/3/2019	Date
TIME	LABEL	10:52:50	Time
NOTES	NOTES	1	&Notes...
	
PSTAT	PSTAT	REF600-11020	Potentiostat
VDC	POTEN	0.00000E+000	T	DC &Voltage (V)
FREQINIT	QUANT	1.00000E+006	Initial Fre&q. (Hz)
FREQFINAL	QUANT	1.00000E+000	Final Fre&q. (Hz)
PTSPERDEC	QUANT	1.00000E+001	Points/&decade
VAC	QUANT	2.50000E+001	AC &Voltage (mV rms)
AREA	QUANT	1.00000E-002	&Area (cm^2)
CONDIT	TWOPARAM	T	5.00000E+000	0.00000E+000	Conditionin&g	Time(s)	E(V)
DELAY	TWOPARAM	T	5.00000E+000	0.00000E+000	Init. De&lay	Time(s)	Stab.(mV/s)
SPEED	SELECTOR	1	&Optimize for:
ZGUESS	QUANT	1.00000E+005	E&stimated Z (ohms)
OCVCURVE	TABLE	19
	Pt	T	Vf	Vm	Ach	Over
	#	s	V vs. Ref.	V	V	bits
	0	0.258333	4.18724E-003	4.18724E-003	5.80299E-004	...........
	1	0.516667	4.18411E-003	4.02348E-003	5.72499E-004	...........
	2	0.775	4.16532E-003	3.89018E-003	5.71332E-004	...........
	3	1.03333	4.11362E-003	3.76577E-003	5.74165E-004	...........
	4	1.29167	4.02436E-003	3.65978E-003	5.69299E-004	...........
	5	1.55	3.91087E-003	3.56008E-003	5.71099E-004	...........
	6	1.80833	3.79163E-003	3.47314E-003	5.70132E-004	...........
	7	2.06667	3.67872E-003	3.38802E-003	5.73632E-004	...........
	8	2.325	3.57629E-003	3.31227E-003	5.72766E-004	...........
	9	2.58333	3.48378E-003	3.23935E-003	5.69266E-004	...........
	10	2.84167	3.39934E-003	3.17437E-003	5.71966E-004	...........
	11	3.1	3.32144E-003	3.10910E-003	5.75832E-004	...........
	12	3.35833	3.24894E-003	3.04744E-003	5.74532E-004	...........
	13	3.61667	3.18074E-003	2.98663E-003	5.72432E-004	...........
	14	3.875	3.11587E-003	2.93364E-003	5.71532E-004	...........
	15	4.13333	3.05397E-003	2.88099E-003	5.79399E-004	...........
	16	4.39167	2.99512E-003	2.82879E-003	5.74532E-004	...........
	17	4.65	2.93926E-003	2.78194E-003	5.72899E-004	...........
	18	4.90833	2.88596E-003	2.72988E-003	5.75632E-004	...........
EOC	QUANT	0.002886	Open Circuit (V)
PSTATMODEL	IQUANT	4	Pstat Model
PSTATSECTION	LABEL	REF600-11020	Pstat Section
PSTATSERIALNO	LABEL	11020	Pstat Serial Number
CTRLMODE	IQUANT	1	Control Mode
IESTAB	IQUANT	0	I/E Stability
CASPEED	IQUANT	1	Control Amp Speed
CONVENTION	IQUANT	1	Current Convention
ICHRANGE	IQUANT	2	Ich Range
ICHRANGEMODE	TOGGLE	F	Ich Auto Range
ICHOFFSETENABLE	TOGGLE	T	Ich Offset Enable
ICHOFFSET	QUANT	0	Ich Offset (V)
ICHFILTER	IQUANT	3	Ich Filter
VCHRANGE	IQUANT	2	Vch Range
VCHRANGEMODE	TOGGLE	F	Vch Auto Range
VCHOFFSETENABLE	TOGGLE	T	Vch Offset Enable
VCHOFFSET	QUANT	0	Vch Offset (V)
VCHFILTER	IQUANT	3	Vch Filter
ACHRANGE	IQUANT	2	Ach Range
ACHOFFSETENABLE	TOGGLE	F	Ach Offset Enable
ACHOFFSET	QUANT	0	Ach Offset (V)
ACHFILTER	IQUANT	3	Ach Filter
IERANGELOWERLIMIT	IQUANT	1	I/E Range Lower Limit
IERANGEMODE	TOGGLE	F	I/E AutoRange
IERANGE	IQUANT	4	I/E Range
POSFEEDENABLE	TOGGLE	F	Positive Feedback IR Comp
POSFEEDRESISTANCE	QUANT	0	Positive Feedback Resistance (ohm)
ACHSELECT	IQUANT	0	Ach Select
CABLEID	IQUANT	14	Cable ID
DCCALDATE	LABEL	8/19/2019	DC Calibration Date
ACCALDATE	LABEL	8/19/2019	AC Calibration Date
THERMOSELECT	IQUANT	1	Thermo Select
FRAMEWORKVERSION	QUANT	6.33	Framework Version
INSTRUMENTVERSION	LABEL	3.50	Instrument Version
ZCURVE	TABLE
	Pt	Time	Freq	Zreal	Zimag	Zsig	Zmod	Zphz	Idc	Vdc	IERange
	#	s	Hz	ohm	ohm	V	ohm	°	A	V	#
	0	2	1000078	2099.269	-1488.923	1	2573.679	-35.34647	-1.593252E-006	0.0049777	8
	1	3	794390.6	2386.654	-1409.489	1	2771.782	-30.56488	6.033649E-006	0.0048897	8
	2	4	630984.4	2653.788	-1305.972	1	2957.728	-26.20255	-3.142442E-006	0.005302	8
	3	6	501234.4	2863.137	-1173.327	1	3094.228	-22.28405	-6.44527E-006	0.0056977	8
	4	7	398109.4	3043.021	-1039.398	1	3215.638	-18.85852	-6.005032E-006	0.0055868	8
	5	8	316265.6	3177.287	-912.2906	1	3305.666	-16.0203	2.353038E-006	0.0048716	8
	6	10	251203.1	3288.591	-787.6501	1	3381.601	-13.46918	1.875365E-006	0.0048568	8
	7	11	199546.9	3366.342	-677.4178	1	3433.825	-11.37782	-3.76209E-006	0.0051308	8
	8	12	158578.1	3441.228	-585.7822	1	3490.729	-9.66056	6.134111E-006	0.0034077	8
	9	14	125953.1	3495.02	-473.7758	1	3526.985	-7.719811	-7.501953E-007	0.0078511	7
	10	15	100078.1	3528.61	-413.7603	1	3552.785	-6.68789	-9.155537E-007	0.0062387	7
	11	16	79453.13	3566.532	-385.0985	1	3587.262	-6.162672	4.940275E-007	0.0027973	7
	12	18	63140.62	3596.593	-365.1539	1	3615.082	-5.797246	1.128564E-006	0.0033325	7
	13	19	50203.12	3620.25	-349.0244	1	3637.036	-5.506805	-2.900122E-007	0.0058873	7
	14	21	39890.62	3646.124	-343.256	1	3662.246	-5.378129	-1.077233E-006	0.0050331	7
	15	22	31640.63	3676.375	-348.5772	1	3692.864	-5.416334	4.054982E-007	0.0050316	7
	16	23	25171.88	3699.562	-362.4429	1	3717.274	-5.595363	-1.080209E-006	0.0050382	7
	17	25	20015.62	3730.266	-384.9946	1	3750.081	-5.89254	-9.165226E-007	0.0062202	7
	18	26	15890.62	3762.597	-420.6299	1	3786.036	-6.37875	1.114396E-006	0.0029967	7
	19	27	12609.37	3788.439	-466.657	1	3817.072	-7.022275	8.040077E-008	0.0054703	7
	20	29	10078.13	3815.07	-524.0217	1	3850.89	-7.820964	-7.536363E-007	0.0043425	7
	21	30	8015.625	3856.278	-604.1066	1	3903.31	-8.903329	1.132408E-006	0.0033299	7
	22	31	6328.125	3888.284	-702.3232	1	3951.204	-10.23868	-1.077612E-006	0.005039	7
	23	33	5015.625	3928.366	-824.2136	1	4013.899	-11.8494	-1.122293E-006	0.0061677	7
	24	34	3984.375	3970.177	-978.465	1	4088.973	-13.84485	-1.078073E-006	0.0050372	7
	25	35	3170.956	4030.133	-1164.558	1	4195.017	-16.11732	1.131641E-006	0.0033228	7
	26	37	2527.573	4085.352	-1392.143	1	4316.036	-18.81729	1.163198E-007	0.0030978	7
	27	38	1976.103	4152.977	-1694.622	1	4485.417	-22.19791	-6.297976E-007	0.0061341	7
	28	39	1577.524	4233.754	-2036.188	1	4697.95	-25.68483	-7.518704E-007	0.0043424	7
	29	41	1265.625	4317.938	-2455.589	1	4967.344	-29.62666	-1.122508E-006	0.0061693	7
	30	42	998.264	4429.036	-3014.189	1	5357.396	-34.23732	1.115125E-006	0.0029959	7
	31	43	796.875	4554.448	-3646.532	1	5834.397	-38.68261	8.237604E-008	0.005478	7
	32	45	627.7902	4711.177	-4478.471	1	6500.145	-43.54943	-9.135107E-007	0.0062269	7
	33	46	505.5147	4879.828	-5427.774	1	7298.867	-48.04295	1.098338E-007	0.0030994	7
	34	48	397.9953	5105.126	-6693.642	1	8418.263	-52.66785	6.907738E-009	0.0045203	7
	35	49	315.5048	5379.814	-8223.919	1	9827.27	-56.80862	3.727938E-009	0.0045257	7
	36	50	252.4038	5709.992	-10034.51	1	11545.36	-60.35858	8.013603E-010	0.0044572	6
	37	52	198.6229	6153.509	-12429.99	1	13869.76	-63.66212	7.683967E-010	0.00446	6
	38	53	158.3615	6696.377	-15224.33	1	16631.95	-66.25785	1.534022E-009	0.0044632	6
	39	54	125.558	7419.432	-18744.88	1	20159.83	-68.40579	7.137463E-010	0.0044684	6
	40	56	100.4464	8304.548	-22886.05	1	24346.19	-70.05594	1.128817E-009	0.0044679	6
	41	57	79.00281	9654.89	-28294.66	1	29896.57	-71.159	2.771955E-010	0.0044513	6
	42	58	63.3446	10989.69	-34135.48	1	35860.9	-72.15439	2.894918E-010	0.0044519	6
	43	60	49.86702	13678.3	-42366.23	1	44519.58	-72.10689	8.30263E-010	0.0044517	6
	44	61	39.72458	16370.96	-51698.93	1	54229.03	-72.42912	8.148282E-010	0.0044547	6
	45	63	31.6723	20078.27	-62528.36	1	65672.93	-72.19783	9.097917E-010	0.0044545	6
	46	64	24.93351	25400.7	-76426.43	1	80536.91	-71.61552	4.799933E-010	0.004458	6
	47	66	19.86229	32081.03	-92182.67	1	97605.5	-70.81129	7.868373E-010	0.0044578	6
	48	67	15.83615	39710.65	-110824.6	1	117724.4	-70.28639	-1.347882E-009	0.0044631	5
	49	68	12.40079	52329.5	-132021.7	1	142014.4	-68.37808	7.981721E-010	0.0044651	5
	50	70	9.93114	67533.96	-156299.9	1	170265.9	-66.63182	1.713113E-010	0.0044767	5
	51	71	7.944915	84614.64	-183301.9	1	201889.1	-65.22131	1.704291E-010	0.0044768	5
	52	73	6.317385	107635.9	-211961.8	1	237725.2	-63.07816	1.597154E-010	0.0044961	5
	53	75	5.008013	135084.2	-244129.1	1	279010.3	-61.04289	5.34407E-010	0.0044757	5
	54	77	3.945707	168085.6	-279586.8	1	326223.2	-58.98602	5.942764E-011	0.0044746	5
	55	80	3.158693	202836.8	-314083.9	1	373887	-57.14545	3.298601E-010	0.0044956	5
	56	83	2.504006	242511.2	-353504.5	1	428692.3	-55.5491	-1.952703E-010	0.0044679	5
	57	86	1.998082	283750.7	-394172.4	1	485681.3	-54.25124	-9.859388E-011	0.0044418	5
	58	89	1.584686	327342.4	-439525.4	1	548028.8	-53.32261	2.545802E-011	0.0045003	5
	59	93	1.266892	371585.1	-492699	1	617112.4	-52.97703	-6.261059E-011	0.0044357	5
	60	97	0.999041	420896.2	-557874.1	1	698839.9	-52.96674	2.769375E-010	0.0045043	5
