EXPLAIN
TAG	EISPOT
TITLE	LABEL	Potentiostatic EIS	Test &Identifier
DATE	LABEL	9/20/2019	Date
TIME	LABEL	12:25:32	Time
NOTES	NOTES	1	&Notes...
	
PSTAT	PSTAT	REF600-11020	Potentiostat
VDC	POTEN	0.00000E+000	T	DC &Voltage (V)
FREQINIT	QUANT	1.00000E+006	Initial Fre&q. (Hz)
FREQFINAL	QUANT	1.00000E+000	Final Fre&q. (Hz)
PTSPERDEC	QUANT	1.00000E+001	Points/&decade
VAC	QUANT	2.50000E+001	AC &Voltage (mV rms)
AREA	QUANT	1.00000E-002	&Area (cm^2)
CONDIT	TWOPARAM	T	5.00000E+000	0.00000E+000	Conditionin&g	Time(s)	E(V)
DELAY	TWOPARAM	T	5.00000E+000	0.00000E+000	Init. De&lay	Time(s)	Stab.(mV/s)
SPEED	SELECTOR	1	&Optimize for:
ZGUESS	QUANT	1.00000E+004	E&stimated Z (ohms)
OCVCURVE	TABLE	19
	Pt	T	Vf	Vm	Ach	Over
	#	s	V vs. Ref.	V	V	bits
	0	0.258333	8.01378E-003	8.01378E-003	5.77766E-004	...........
	1	0.516667	8.01056E-003	7.84542E-003	5.77666E-004	...........
	2	0.775	7.97895E-003	7.06482E-003	5.73499E-004	...........
	3	1.03333	7.85227E-003	6.42981E-003	5.73866E-004	...........
	4	1.29167	7.55389E-003	5.56461E-003	5.77566E-004	...........
	5	1.55	7.06614E-003	5.17737E-003	5.77399E-004	...........
	6	1.80833	6.45777E-003	4.77125E-003	5.74799E-004	...........
	7	2.06667	5.83993E-003	4.38908E-003	5.73732E-004	...........
	8	2.325	5.29251E-003	4.05394E-003	5.75299E-004	...........
	9	2.58333	4.83504E-003	3.87522E-003	5.76366E-004	...........
	10	2.84167	4.45681E-003	3.60277E-003	5.80032E-004	...........
	11	3.1	4.14368E-003	3.42732E-003	5.78932E-004	...........
	12	3.35833	3.88066E-003	3.26947E-003	5.77032E-004	...........
	13	3.61667	3.65496E-003	3.09846E-003	5.77899E-004	...........
	14	3.875	3.45755E-003	2.93220E-003	5.80765E-004	...........
	15	4.13333	3.27956E-003	2.79589E-003	5.79399E-004	...........
	16	4.39167	3.11399E-003	2.66348E-003	5.80432E-004	...........
	17	4.65	2.95897E-003	2.55159E-003	5.79899E-004	...........
	18	4.90833	2.81559E-003	2.43677E-003	5.73965E-004	...........
EOC	QUANT	0.0028156	Open Circuit (V)
PSTATMODEL	IQUANT	4	Pstat Model
PSTATSECTION	LABEL	REF600-11020	Pstat Section
PSTATSERIALNO	LABEL	11020	Pstat Serial Number
CTRLMODE	IQUANT	1	Control Mode
IESTAB	IQUANT	0	I/E Stability
CASPEED	IQUANT	1	Control Amp Speed
CONVENTION	IQUANT	1	Current Convention
ICHRANGE	IQUANT	2	Ich Range
ICHRANGEMODE	TOGGLE	F	Ich Auto Range
ICHOFFSETENABLE	TOGGLE	T	Ich Offset Enable
ICHOFFSET	QUANT	0	Ich Offset (V)
ICHFILTER	IQUANT	3	Ich Filter
VCHRANGE	IQUANT	2	Vch Range
VCHRANGEMODE	TOGGLE	F	Vch Auto Range
VCHOFFSETENABLE	TOGGLE	T	Vch Offset Enable
VCHOFFSET	QUANT	0	Vch Offset (V)
VCHFILTER	IQUANT	3	Vch Filter
ACHRANGE	IQUANT	2	Ach Range
ACHOFFSETENABLE	TOGGLE	F	Ach Offset Enable
ACHOFFSET	QUANT	0	Ach Offset (V)
ACHFILTER	IQUANT	3	Ach Filter
IERANGELOWERLIMIT	IQUANT	1	I/E Range Lower Limit
IERANGEMODE	TOGGLE	F	I/E AutoRange
IERANGE	IQUANT	5	I/E Range
POSFEEDENABLE	TOGGLE	F	Positive Feedback IR Comp
POSFEEDRESISTANCE	QUANT	0	Positive Feedback Resistance (ohm)
ACHSELECT	IQUANT	0	Ach Select
CABLEID	IQUANT	14	Cable ID
DCCALDATE	LABEL	8/19/2019	DC Calibration Date
ACCALDATE	LABEL	8/19/2019	AC Calibration Date
THERMOSELECT	IQUANT	1	Thermo Select
FRAMEWORKVERSION	QUANT	6.33	Framework Version
INSTRUMENTVERSION	LABEL	3.50	Instrument Version
ZCURVE	TABLE
	Pt	Time	Freq	Zreal	Zimag	Zsig	Zmod	Zphz	Idc	Vdc	IERange
	#	s	Hz	ohm	ohm	V	ohm	°	A	V	#
	0	2	1000078	2543.045	-2071.894	1	3280.217	-39.17072	-3.42685E-007	0.0048193	8
	1	3	794390.6	2982.626	-2069.407	1	3630.221	-34.75371	2.141878E-006	0.0040843	8
	2	5	630984.4	3365.114	-1976.058	1	3902.409	-30.42225	-3.597567E-006	0.0050161	8
	3	6	501234.4	3715.508	-1812.143	1	4133.868	-25.9996	2.034302E-006	0.0041699	8
	4	7	398109.4	4031.403	-1656.01	1	4358.277	-22.33176	1.581103E-006	0.003947	8
	5	9	316265.6	4273.193	-1471.961	1	4519.607	-19.00699	1.478987E-006	0.0038789	8
	6	11	251203.1	4453.575	-1274.861	1	4632.451	-15.97406	3.578996E-006	0.0037227	8
	7	12	199546.9	4608.278	-1146.189	1	4748.681	-13.96741	4.715396E-006	0.0034606	8
	8	13	158578.1	4708.757	-1032.346	1	4820.595	-12.36585	6.938296E-007	0.0044461	8
	9	15	125953.1	4842.498	-832.7275	1	4913.575	-9.75729	-9.186635E-007	0.0061583	7
	10	16	100078.1	4904.204	-765.5935	1	4963.603	-8.872808	-6.084445E-009	0.0043594	7
	11	18	79453.13	4968.478	-715.2317	1	5019.694	-8.191675	-8.101026E-008	0.0044623	7
	12	19	63140.62	5029.174	-682.9376	1	5075.332	-7.733189	8.873941E-008	0.0041529	7
	13	20	50203.12	5085.8	-668.5609	1	5129.555	-7.488955	-7.745582E-009	0.0043839	7
	14	22	39890.62	5143.875	-669.379	1	5187.246	-7.414308	-3.186137E-008	0.0043394	7
	15	23	31640.63	5204.403	-690.2897	1	5249.982	-7.555367	1.626861E-008	0.004245	7
	16	25	25171.88	5267.114	-724.8794	1	5316.761	-7.836029	-6.520427E-009	0.0043789	7
	17	26	20015.62	5334.827	-775.2189	1	5390.857	-8.267942	-4.728379E-008	0.0044368	7
	18	27	15890.62	5409.295	-839.8237	1	5474.101	-8.825037	-4.702908E-008	0.0043575	7
	19	29	12609.37	5487.715	-932.5842	1	5566.393	-9.64472	-3.735674E-009	0.0043393	7
	20	30	10078.13	5570.739	-1034.489	1	5665.978	-10.52002	-4.730257E-008	0.0044272	7
	21	31	8015.625	5663.721	-1161.553	1	5781.604	-11.58989	-3.94671E-008	0.0043422	7
	22	33	6328.125	5769.508	-1323.172	1	5919.291	-12.91678	-1.999257E-008	0.0042937	7
	23	34	5015.625	5881.065	-1515.151	1	6073.105	-14.44706	9.022742E-008	0.0041391	7
	24	35	3984.375	6005.16	-1743.516	1	6253.143	-16.18993	4.550523E-008	0.0041747	7
	25	37	3170.956	6138.902	-2020.946	1	6462.998	-18.22171	-3.222835E-008	0.0043335	7
	26	38	2527.573	6285.645	-2352.671	1	6711.512	-20.52051	-4.145397E-008	0.0043406	7
	27	39	1976.103	6463.344	-2790.198	1	7039.888	-23.34965	-3.361993E-008	0.0043293	7
	28	41	1577.524	6648.081	-3284.521	1	7415.191	-26.29193	9.070812E-008	0.004272	7
	29	42	1265.625	6865.134	-3839.25	1	7865.742	-29.21562	-3.219068E-008	0.0043299	7
	30	44	998.264	7087.721	-4610.074	1	8455.092	-33.04123	-1.80286E-008	0.0042997	7
	31	45	796.875	7347.863	-5480.379	1	9166.551	-36.7173	8.964437E-008	0.0041411	7
	32	46	627.7902	7669.479	-6609.975	1	10124.85	-40.75656	6.76795E-009	0.0040411	6
	33	48	505.5147	7989.454	-7865.403	1	11211.42	-44.55172	-1.21898E-009	0.0042659	6
	34	49	397.9953	8410.432	-9565.04	1	12736.77	-48.67519	4.86622E-010	0.0042881	6
	35	50	315.5048	8884.345	-11598.64	1	14610.27	-52.54854	2.142182E-010	0.0042848	6
	36	52	252.4038	9423.889	-13990.27	1	16868.24	-56.03568	4.066158E-010	0.0042798	6
	37	53	198.6229	10117.29	-17155.6	1	19916.68	-59.47058	8.449501E-010	0.0042796	6
	38	54	158.3615	10923.73	-20844.97	1	23533.82	-62.34338	4.595389E-010	0.0042845	6
	39	56	125.558	11949.43	-25485.28	1	28147.62	-64.87925	8.352509E-010	0.0042807	6
	40	57	100.4464	13209.71	-30986.62	1	33684.82	-66.91126	8.580041E-010	0.0042772	6
	41	59	79.00281	14830.24	-38129.76	1	40912.28	-68.74688	1.011143E-009	0.0042724	6
	42	60	63.3446	17183.61	-45935.1	1	49043.96	-69.48995	3.051153E-010	0.004273	6
	43	61	49.86702	20018.58	-57373.51	1	60765.64	-70.76527	1.064666E-009	0.0042742	6
	44	63	39.72458	23584.02	-69464.67	1	73359.02	-71.24709	8.907561E-010	0.0042787	6
	45	64	31.6723	28357.16	-83928.74	1	88589.85	-71.33134	4.534415E-010	0.0042748	6
	46	66	24.93351	35289.57	-102915.4	1	108797.7	-71.07322	5.208219E-010	0.0042678	5
	47	67	19.86229	44026.02	-124181.8	1	131755.1	-70.47911	4.853114E-010	0.004278	5
	48	68	15.83615	54111.94	-147829.6	1	157422	-69.89522	1.097948E-009	0.0042755	5
	49	70	12.40079	70764.43	-181208.7	1	194535.9	-68.66869	8.273128E-010	0.0042777	5
	50	71	9.93114	89634.63	-212713.9	1	230828	-67.15012	4.308404E-010	0.0042848	5
	51	73	7.944915	113788.1	-248876.1	1	273655	-65.42976	8.809328E-011	0.0042741	5
	52	74	6.317385	142286.5	-291491.7	1	324365.3	-63.98151	4.705981E-010	0.004297	5
	53	76	5.008013	179015.3	-338645.3	1	383049.7	-62.13808	4.937711E-010	0.0042923	5
	54	79	3.945707	224863.2	-391450.6	1	451438.8	-60.1254	7.993811E-011	0.0042817	5
	55	82	3.158693	274432.8	-443691.1	1	521704.1	-58.26229	3.412172E-010	0.0042963	5
	56	85	2.504006	334175.8	-503032.4	1	603916.4	-56.40301	-9.328291E-011	0.0042714	5
	57	88	1.998082	398277.2	-560639.9	1	687707.7	-54.61011	-3.717527E-010	0.0042646	5
	58	91	1.584686	470908.1	-625180.9	1	782691.3	-53.01167	1.986528E-010	0.004329	5
	59	94	1.266892	545016.3	-693726.2	1	882212.4	-51.84554	-4.350448E-011	0.0042759	5
	60	99	0.999041	630135.2	-775482.9	1	999222	-50.90368	3.508472E-010	0.0042944	4
