EXPLAIN
TAG	EISPOT
TITLE	LABEL	Potentiostatic EIS	Test &Identifier
DATE	LABEL	9/24/2019	Date
TIME	LABEL	10:36:09	Time
NOTES	NOTES	1	&Notes...
	
PSTAT	PSTAT	REF600-11020	Potentiostat
VDC	POTEN	0.00000E+000	T	DC &Voltage (V)
FREQINIT	QUANT	1.00000E+006	Initial Fre&q. (Hz)
FREQFINAL	QUANT	1.00000E+000	Final Fre&q. (Hz)
PTSPERDEC	QUANT	1.00000E+001	Points/&decade
VAC	QUANT	2.50000E+001	AC &Voltage (mV rms)
AREA	QUANT	1.00000E-002	&Area (cm^2)
CONDIT	TWOPARAM	T	5.00000E+000	0.00000E+000	Conditionin&g	Time(s)	E(V)
DELAY	TWOPARAM	T	5.00000E+000	0.00000E+000	Init. De&lay	Time(s)	Stab.(mV/s)
SPEED	SELECTOR	1	&Optimize for:
ZGUESS	QUANT	1.00000E+004	E&stimated Z (ohms)
OCVCURVE	TABLE	19
	Pt	T	Vf	Vm	Ach	Over
	#	s	V vs. Ref.	V	V	bits
	0	0.258333	-8.65359E-004	-8.65359E-004	5.73666E-004	...........
	1	0.516667	-8.76440E-004	-1.44540E-003	5.73866E-004	...........
	2	0.775	-9.44326E-004	-1.98700E-003	5.76966E-004	...........
	3	1.03333	-1.13563E-003	-2.49508E-003	5.73099E-004	...........
	4	1.29167	-1.47569E-003	-2.97158E-003	5.74966E-004	...........
	5	1.55	-1.92366E-003	-3.41857E-003	5.72966E-004	...........
	6	1.80833	-2.41412E-003	-3.84322E-003	5.72866E-004	...........
	7	2.06667	-2.89997E-003	-4.25193E-003	5.73999E-004	...........
	8	2.325	-3.36130E-003	-4.63631E-003	5.76166E-004	...........
	9	2.58333	-3.79533E-003	-5.00476E-003	5.76332E-004	...........
	10	2.84167	-4.20513E-003	-5.35990E-003	5.77432E-004	...........
	11	3.1	-4.59441E-003	-5.70309E-003	5.77299E-004	...........
	12	3.35833	-4.96640E-003	-6.03393E-003	5.81765E-004	...........
	13	3.61667	-5.32354E-003	-6.34986E-003	5.76099E-004	...........
	14	3.875	-5.66732E-003	-6.65776E-003	5.79932E-004	...........
	15	4.13333	-5.99859E-003	-6.95739E-003	5.75232E-004	...........
	16	4.39167	-6.31825E-003	-7.24447E-003	5.71932E-004	...........
	17	4.65	-6.62728E-003	-7.52524E-003	5.76132E-004	...........
	18	4.90833	-6.92644E-003	-7.79890E-003	5.73799E-004	...........
EOC	QUANT	-0.0069264	Open Circuit (V)
PSTATMODEL	IQUANT	4	Pstat Model
PSTATSECTION	LABEL	REF600-11020	Pstat Section
PSTATSERIALNO	LABEL	11020	Pstat Serial Number
CTRLMODE	IQUANT	1	Control Mode
IESTAB	IQUANT	0	I/E Stability
CASPEED	IQUANT	1	Control Amp Speed
CONVENTION	IQUANT	1	Current Convention
ICHRANGE	IQUANT	2	Ich Range
ICHRANGEMODE	TOGGLE	F	Ich Auto Range
ICHOFFSETENABLE	TOGGLE	T	Ich Offset Enable
ICHOFFSET	QUANT	0	Ich Offset (V)
ICHFILTER	IQUANT	3	Ich Filter
VCHRANGE	IQUANT	2	Vch Range
VCHRANGEMODE	TOGGLE	F	Vch Auto Range
VCHOFFSETENABLE	TOGGLE	T	Vch Offset Enable
VCHOFFSET	QUANT	0	Vch Offset (V)
VCHFILTER	IQUANT	3	Vch Filter
ACHRANGE	IQUANT	2	Ach Range
ACHOFFSETENABLE	TOGGLE	F	Ach Offset Enable
ACHOFFSET	QUANT	0	Ach Offset (V)
ACHFILTER	IQUANT	3	Ach Filter
IERANGELOWERLIMIT	IQUANT	1	I/E Range Lower Limit
IERANGEMODE	TOGGLE	F	I/E AutoRange
IERANGE	IQUANT	6	I/E Range
POSFEEDENABLE	TOGGLE	F	Positive Feedback IR Comp
POSFEEDRESISTANCE	QUANT	0	Positive Feedback Resistance (ohm)
ACHSELECT	IQUANT	0	Ach Select
CABLEID	IQUANT	14	Cable ID
DCCALDATE	LABEL	8/19/2019	DC Calibration Date
ACCALDATE	LABEL	8/19/2019	AC Calibration Date
THERMOSELECT	IQUANT	1	Thermo Select
FRAMEWORKVERSION	QUANT	6.33	Framework Version
INSTRUMENTVERSION	LABEL	3.50	Instrument Version
ZCURVE	TABLE
	Pt	Time	Freq	Zreal	Zimag	Zsig	Zmod	Zphz	Idc	Vdc	IERange
	#	s	Hz	ohm	ohm	V	ohm	°	A	V	#
	0	1	1000078	2329.274	-2077.228	1	3120.96	-41.72632	2.191921E-006	-0.0056229	8
	1	3	794390.6	2757.038	-2088.774	1	3458.936	-37.14812	6.850216E-007	-0.0055732	8
	2	4	630984.4	3175.195	-2035.243	1	3771.482	-32.65915	1.193383E-006	-0.005666	8
	3	6	501234.4	3549.325	-1880.656	1	4016.787	-27.91746	-3.440209E-009	-0.0054984	8
	4	7	398109.4	3868.848	-1740.8	1	4242.449	-24.22551	-2.210809E-006	-0.0049785	8
	5	9	316265.6	4150.282	-1565.622	1	4435.765	-20.66811	1.744305E-006	-0.0059474	8
	6	10	251203.1	4337.595	-1349.119	1	4542.561	-17.27723	1.363808E-006	-0.0057365	8
	7	12	199546.9	4527.292	-1202.561	1	4684.285	-14.87567	2.756189E-006	-0.0060022	8
	8	13	158578.1	4653.47	-1046.846	1	4769.766	-12.67822	-3.323608E-007	-0.005301	8
	9	14	125953.1	4771.177	-881.4083	1	4851.908	-10.46659	1.379765E-006	-0.0079461	7
	10	16	100078.1	4847.779	-801.3522	1	4913.565	-9.386283	1.345284E-007	-0.0056676	7
	11	17	79453.13	4915.737	-738.7322	1	4970.935	-8.546401	-1.773915E-008	-0.0054952	7
	12	19	63140.62	4976.319	-698.6462	1	5025.123	-7.991759	1.347363E-007	-0.0056714	7
	13	20	50203.12	5034.055	-673.9233	1	5078.964	-7.625014	-2.944951E-009	-0.0054365	7
	14	21	39890.62	5092.22	-667.0634	1	5135.726	-7.463055	-4.60352E-008	-0.0053823	7
	15	23	31640.63	5150.492	-679.2786	1	5195.093	-7.513159	-4.57961E-008	-0.0053797	7
	16	24	25171.88	5212.2	-705.3085	1	5259.704	-7.706385	8.403097E-008	-0.0056552	7
	17	25	20015.62	5276.606	-747.388	1	5329.274	-8.061849	4.228934E-008	-0.0056172	7
	18	27	15890.62	5346.859	-806.2896	1	5407.311	-8.575412	1.366928E-007	-0.005686	7
	19	28	12609.37	5423.231	-883.0565	1	5494.654	-9.24822	-3.78075E-008	-0.0054622	7
	20	29	10078.13	5497.696	-974.778	1	5583.444	-10.05443	4.297536E-008	-0.0056184	7
	21	31	8015.625	5585.527	-1092.978	1	5691.46	-11.07175	-7.270758E-008	-0.0053718	7
	22	32	6328.125	5681.157	-1239.295	1	5814.756	-12.3058	-3.34444E-008	-0.0054715	7
	23	33	5015.625	5783.353	-1416.394	1	5954.271	-13.76137	-3.322407E-008	-0.0054697	7
	24	35	3984.375	5890.38	-1632.169	1	6112.328	-15.48755	-1.285757E-008	-0.0054337	7
	25	36	3170.956	6011.611	-1889.927	1	6301.689	-17.45207	-4.516368E-008	-0.0053843	7
	26	38	2527.573	6139.913	-2205.991	1	6524.181	-19.76271	-3.380589E-008	-0.0054763	7
	27	39	1976.103	6299.561	-2620.581	1	6822.896	-22.58702	-1.151566E-008	-0.0054339	7
	28	40	1577.524	6466.37	-3097.532	1	7169.982	-25.59544	-3.133414E-009	-0.0054633	7
	29	42	1265.625	6622.75	-3675.157	1	7574.14	-29.02717	-3.442661E-008	-0.0054685	7
	30	43	998.264	6877.922	-4378.659	1	8153.433	-32.48186	7.139175E-008	-0.0055953	7
	31	44	796.875	7129.618	-5226.433	1	8840.082	-36.24363	7.036721E-008	-0.0056057	7
	32	46	627.7902	7442.357	-6310.745	1	9757.78	-40.29627	-3.18376E-008	-0.0054688	7
	33	47	505.5147	7789.789	-7512.432	1	10822.08	-43.96161	-8.326739E-010	-0.0055539	6
	34	48	397.9953	8236.686	-9136.465	1	12301.14	-47.96478	2.055044E-009	-0.0055241	6
	35	50	315.5048	8768.489	-11066.11	1	14118.97	-51.60764	1.826611E-009	-0.0055254	6
	36	51	252.4038	9389.961	-13318.57	1	16295.88	-54.8151	1.304587E-009	-0.0055331	6
	37	53	198.6229	10219.08	-16274.75	1	19217.11	-57.87489	1.462218E-009	-0.0055292	6
	38	54	158.3615	11200.95	-19676.92	1	22641.61	-60.3496	8.600398E-010	-0.0055262	6
	39	55	125.558	12494.8	-23902.93	1	26971.65	-62.40253	1.251801E-009	-0.0055361	6
	40	57	100.4464	14075.61	-28841.46	1	32092.87	-63.98606	4.923273E-010	-0.0055286	6
	41	58	79.00281	16242.23	-35154.68	1	38725.46	-65.20203	2.110243E-009	-0.005535	6
	42	59	63.3446	18420.93	-42151.02	1	46000.42	-66.39361	1.180856E-009	-0.0055294	6
	43	61	49.86702	23290.67	-51040.61	1	56103.47	-65.47201	5.48585E-010	-0.0055335	6
	44	62	39.72458	27700.79	-61234.42	1	67208.54	-65.65929	6.753589E-010	-0.0055231	6
	45	64	31.6723	33674.39	-73084.68	1	80469.46	-65.26171	5.327381E-010	-0.0055336	6
	46	65	24.93351	42029.13	-86907.82	1	96537.1	-64.19131	7.45403E-010	-0.0055288	6
	47	67	19.86229	52019.89	-101821.6	1	114340.3	-62.93785	-9.427853E-011	-0.0055271	5
	48	68	15.83615	62894.31	-118742.4	1	134370.6	-62.09116	2.233968E-009	-0.0055337	5
	49	69	12.40079	79670.7	-139296.2	1	160470.7	-60.23253	9.169001E-010	-0.0055264	5
	50	71	9.93114	98049.2	-157256.7	1	185319.5	-58.05656	3.464999E-010	-0.0055283	5
	51	72	7.944915	118711.5	-177867.7	1	213844.2	-56.28027	8.274114E-010	-0.0055238	5
	52	74	6.317385	141797	-198650.2	1	244066.1	-54.48066	1.759441E-010	-0.0055141	5
	53	76	5.008013	167887.9	-221993.9	1	278330.2	-52.90078	4.011662E-010	-0.0055329	5
	54	79	3.945707	196180.2	-247337.1	1	315693.3	-51.57963	8.874306E-010	-0.0055209	5
	55	81	3.158693	224278.9	-273994.7	1	354082.1	-50.69789	2.295795E-010	-0.0055452	5
	56	85	2.504006	254789.1	-305610.3	1	397888.4	-50.18184	9.833038E-010	-0.0055309	5
	57	87	1.998082	285449.8	-340686.6	1	444464.8	-50.0415	6.894881E-010	-0.0054997	5
	58	90	1.584686	317686.3	-382939.3	1	497561.2	-50.32091	5.166431E-010	-0.0055665	5
	59	94	1.266892	351088.5	-434464.7	1	558589.9	-51.05851	6.200217E-010	-0.0055135	5
	60	98	0.999041	389522.9	-500031.8	1	633845.3	-52.08155	2.247581E-010	-0.0055634	5
