EXPLAIN
TAG	EISPOT
TITLE	LABEL	Potentiostatic EIS	Test &Identifier
DATE	LABEL	10/10/2019	Date
TIME	LABEL	9:27:31	Time
NOTES	NOTES	1	&Notes...
	
PSTAT	PSTAT	REF600-11020	Potentiostat
VDC	POTEN	0.00000E+000	T	DC &Voltage (V)
FREQINIT	QUANT	1.00000E+006	Initial Fre&q. (Hz)
FREQFINAL	QUANT	1.00000E+000	Final Fre&q. (Hz)
PTSPERDEC	QUANT	1.00000E+001	Points/&decade
VAC	QUANT	2.50000E+001	AC &Voltage (mV rms)
AREA	QUANT	1.00000E-002	&Area (cm^2)
CONDIT	TWOPARAM	T	5.00000E+000	0.00000E+000	Conditionin&g	Time(s)	E(V)
DELAY	TWOPARAM	T	5.00000E+000	0.00000E+000	Init. De&lay	Time(s)	Stab.(mV/s)
SPEED	SELECTOR	1	&Optimize for:
ZGUESS	QUANT	1.00000E+004	E&stimated Z (ohms)
OCVCURVE	TABLE	19
	Pt	T	Vf	Vm	Ach	Over
	#	s	V vs. Ref.	V	V	bits
	0	0.258333	3.43559E-003	3.43559E-003	6.22732E-004	...........
	1	0.516667	3.42613E-003	2.94030E-003	6.26631E-004	...........
	2	0.775	3.36869E-003	2.50530E-003	6.29431E-004	...........
	3	1.03333	3.20897E-003	2.11927E-003	6.19198E-004	...........
	4	1.29167	2.93050E-003	1.77044E-003	6.27398E-004	...........
	5	1.55	2.57322E-003	1.45687E-003	6.18898E-004	...........
	6	1.80833	2.19481E-003	1.16807E-003	6.21832E-004	...........
	7	2.06667	1.83415E-003	9.07754E-004	6.23098E-004	...........
	8	2.325	1.50584E-003	6.64381E-004	6.21065E-004	...........
	9	2.58333	1.21003E-003	4.42445E-004	6.15865E-004	...........
	10	2.84167	9.41904E-004	2.31305E-004	6.21398E-004	...........
	11	3.1	6.96468E-004	4.43796E-005	6.20998E-004	...........
	12	3.35833	4.70169E-004	-1.39595E-004	6.16365E-004	...........
	13	3.61667	2.60680E-004	-3.02963E-004	6.27098E-004	...........
	14	3.875	6.60981E-005	-4.67358E-004	6.17365E-004	...........
	15	4.13333	-1.15470E-004	-6.12990E-004	6.23832E-004	...........
	16	4.39167	-2.85702E-004	-7.55952E-004	6.21698E-004	...........
	17	4.65	-4.45630E-004	-8.80761E-004	6.24165E-004	...........
	18	4.90833	-5.95724E-004	-1.01247E-003	6.27865E-004	...........
EOC	QUANT	-0.0005957	Open Circuit (V)
PSTATMODEL	IQUANT	4	Pstat Model
PSTATSECTION	LABEL	REF600-11020	Pstat Section
PSTATSERIALNO	LABEL	11020	Pstat Serial Number
CTRLMODE	IQUANT	1	Control Mode
IESTAB	IQUANT	0	I/E Stability
CASPEED	IQUANT	1	Control Amp Speed
CONVENTION	IQUANT	1	Current Convention
ICHRANGE	IQUANT	2	Ich Range
ICHRANGEMODE	TOGGLE	F	Ich Auto Range
ICHOFFSETENABLE	TOGGLE	T	Ich Offset Enable
ICHOFFSET	QUANT	0	Ich Offset (V)
ICHFILTER	IQUANT	3	Ich Filter
VCHRANGE	IQUANT	2	Vch Range
VCHRANGEMODE	TOGGLE	F	Vch Auto Range
VCHOFFSETENABLE	TOGGLE	T	Vch Offset Enable
VCHOFFSET	QUANT	0	Vch Offset (V)
VCHFILTER	IQUANT	3	Vch Filter
ACHRANGE	IQUANT	2	Ach Range
ACHOFFSETENABLE	TOGGLE	F	Ach Offset Enable
ACHOFFSET	QUANT	0	Ach Offset (V)
ACHFILTER	IQUANT	3	Ach Filter
IERANGELOWERLIMIT	IQUANT	1	I/E Range Lower Limit
IERANGEMODE	TOGGLE	F	I/E AutoRange
IERANGE	IQUANT	5	I/E Range
POSFEEDENABLE	TOGGLE	F	Positive Feedback IR Comp
POSFEEDRESISTANCE	QUANT	0	Positive Feedback Resistance (ohm)
ACHSELECT	IQUANT	0	Ach Select
CABLEID	IQUANT	14	Cable ID
DCCALDATE	LABEL	8/19/2019	DC Calibration Date
ACCALDATE	LABEL	8/19/2019	AC Calibration Date
THERMOSELECT	IQUANT	1	Thermo Select
FRAMEWORKVERSION	QUANT	6.33	Framework Version
INSTRUMENTVERSION	LABEL	3.50	Instrument Version
ZCURVE	TABLE
	Pt	Time	Freq	Zreal	Zimag	Zsig	Zmod	Zphz	Idc	Vdc	IERange
	#	s	Hz	ohm	ohm	V	ohm	°	A	V	#
	0	2	1000078	2504.381	-1775.942	1	3070.162	-35.34175	9.304749E-007	0.0019944	8
	1	3	794390.6	2863.283	-1716.267	1	3338.257	-30.93871	1.283402E-006	0.0010512	8
	2	5	630984.4	3178.311	-1595.146	1	3556.143	-26.65138	-8.271869E-007	0.0011023	8
	3	6	501234.4	3433.512	-1425.998	1	3717.859	-22.55397	9.761387E-007	0.0011763	8
	4	8	398109.4	3666.351	-1293.449	1	3887.819	-19.43229	-2.593473E-006	0.0015575	8
	5	9	316265.6	3826.392	-1141.373	1	3992.995	-16.6093	-3.079288E-006	0.0017189	8
	6	10	251203.1	3957.381	-1012.252	1	4084.791	-14.34796	7.237193E-007	0.0010339	8
	7	12	199546.9	4056.735	-878.7124	1	4150.811	-12.22179	1.93183E-006	0.0005845	8
	8	13	158578.1	4130.469	-783.423	1	4204.108	-10.73968	-1.393203E-006	0.0013538	8
	9	14	125953.1	4224.159	-655.3156	1	4274.688	-8.818296	-1.356882E-006	0.004015	7
	10	16	100078.1	4275.236	-613.0374	1	4318.965	-8.160169	-1.592177E-008	0.0010569	7
	11	17	79453.13	4321.317	-591.3891	1	4361.596	-7.792742	8.832059E-008	0.0008338	7
	12	18	63140.62	4374.813	-585.6324	1	4413.836	-7.624546	5.287519E-008	0.0009549	7
	13	20	50203.12	4426.62	-592.8149	1	4466.139	-7.627692	-5.766645E-008	0.0010874	7
	14	21	39890.62	4479.8	-615.8059	1	4521.927	-7.826985	-6.625827E-008	0.0011277	7
	15	22	31640.63	4539.131	-653.3491	1	4585.91	-8.190729	-7.844039E-009	0.0010259	7
	16	24	25171.88	4601.036	-704.8846	1	4654.717	-8.710065	-6.722715E-008	0.001233	7
	17	25	20015.62	4672.83	-772.2206	1	4736.208	-9.383753	9.934242E-008	0.0009419	7
	18	26	15890.62	4751.211	-849.9083	1	4826.629	-10.14194	4.859802E-008	0.000956	7
	19	28	12609.37	4843.533	-947.8024	1	4935.396	-11.07197	1.285292E-007	0.0008284	7
	20	29	10078.13	4937.105	-1061.343	1	5049.896	-12.13239	-5.550835E-008	0.001083	7
	21	31	8015.625	5047.085	-1202.095	1	5188.266	-13.39688	-3.360537E-008	0.0010109	7
	22	32	6328.125	5180.616	-1359.765	1	5356.094	-14.70679	-4.328482E-008	0.0010231	7
	23	33	5015.625	5323.658	-1544.582	1	5543.2	-16.17932	1.016474E-007	0.0009302	7
	24	35	3984.375	5468.006	-1758.921	1	5743.944	-17.83169	4.902306E-008	0.0008629	7
	25	36	3170.956	5667.299	-2007.236	1	6012.261	-19.50306	-4.304506E-009	0.0010547	7
	26	37	2527.573	5875.553	-2288.763	1	6305.597	-21.2829	6.89836E-008	0.0009005	7
	27	39	1976.103	6130.289	-2647.864	1	6677.696	-23.36103	-5.446871E-008	0.0010794	7
	28	40	1577.524	6387.687	-2996.271	1	7055.507	-25.12986	-4.400473E-009	0.0010566	7
	29	41	1265.625	6681.246	-3449.424	1	7519.147	-27.3066	1.010231E-007	0.0009224	7
	30	43	998.264	7021.799	-3980.664	1	8071.639	-29.54893	-6.719189E-008	0.0012236	7
	31	44	796.875	7393.399	-4554.112	1	8683.449	-31.63182	2.37452E-009	0.000972	7
	32	45	627.7902	7815.31	-5267.873	1	9424.943	-33.98175	1.069739E-007	0.0009315	7
	33	47	505.5147	8205.891	-6017.563	1	10175.84	-36.25343	-5.801346E-010	0.0009409	6
	34	48	397.9953	8655.369	-7026.944	1	11148.69	-39.07175	8.012176E-010	0.0009623	6
	35	50	315.5048	9097.654	-8225.319	1	12264.71	-42.11718	9.197487E-011	0.0009627	6
	36	51	252.4038	9530.33	-9652.69	1	13564.72	-45.36546	1.673587E-009	0.0009653	6
	37	52	198.6229	10021.37	-11573.11	1	15308.97	-49.11012	1.018224E-009	0.0009604	6
	38	54	158.3615	10523.72	-13851.84	1	17396.04	-52.77482	9.884118E-010	0.0009633	6
	39	55	125.558	11115.45	-16775.1	1	20123.54	-56.47091	6.180793E-010	0.0009639	6
	40	56	100.4464	11796.12	-20256.23	1	23440.63	-59.78582	1.556104E-009	0.0009593	6
	41	58	79.00281	12636.79	-24958.5	1	27975.26	-63.14635	1.471616E-009	0.0009574	6
	42	59	63.3446	13423.64	-30387.71	1	33220.58	-66.16677	6.617262E-010	0.0009612	6
	43	60	49.86702	15224.37	-37168.8	1	40165.92	-67.72596	1.561603E-009	0.0009575	6
	44	62	39.72458	17044.59	-45712.52	1	48786.8	-69.55129	1.205312E-009	0.0009629	6
	45	63	31.6723	19200.33	-55853.3	1	59061.36	-71.02889	1.144309E-009	0.0009609	6
	46	65	24.93351	22577.38	-68895.13	1	72500.19	-71.8557	3.071272E-010	0.0009559	6
	47	66	19.86229	26658.53	-83995.26	1	88124.23	-72.39153	5.904455E-010	0.0009538	6
	48	68	15.83615	31098.2	-102179.4	1	106807	-73.07243	-9.119262E-010	0.0009602	5
	49	69	12.40079	39040.59	-124934	1	130891.9	-72.64651	7.015037E-010	0.0009627	5
	50	70	9.93114	47988.35	-151223.1	1	158654.7	-72.39395	3.162391E-010	0.0009643	5
	51	72	7.944915	58208.57	-182162.4	1	191236.5	-72.27913	1.475727E-012	0.0009688	5
	52	74	6.317385	73182.74	-218491.9	1	230422.2	-71.48199	1.92736E-010	0.0009847	5
	53	76	5.008013	91552.63	-262425.7	1	277937.3	-70.76762	3.064487E-010	0.0009755	5
	54	78	3.945707	114173	-315799.1	1	335804.3	-70.12321	3.766333E-011	0.0009631	5
	55	81	3.158693	141277	-373813.1	1	399619.1	-69.29668	2.681617E-010	0.0009849	5
	56	84	2.504006	175334.9	-445084.5	1	478374.9	-68.49873	-2.501198E-011	0.0009649	5
	57	87	1.998082	214963.1	-524498.3	1	566840	-67.71396	1.480201E-010	0.0009214	5
	58	90	1.584686	263156.4	-618731	1	672368.4	-66.95916	1.223012E-010	0.0009727	5
	59	94	1.266892	320182.9	-727275.3	1	794636.1	-66.23851	1.260389E-010	0.0009147	5
	60	98	0.999041	392453.9	-859287.8	1	944666.9	-65.45287	1.582514E-010	0.000998	5
