EXPLAIN
TAG	EISPOT
TITLE	LABEL	Potentiostatic IDE	Test &Identifier
DATE	LABEL	9/12/2019	Date
TIME	LABEL	9:18:15	Time
NOTES	NOTES	1	&Notes...
	
PSTAT	PSTAT	REF600-11020	Potentiostat
VDC	POTEN	0.00000E+000	T	DC &Voltage (V)
FREQINIT	QUANT	1.00000E+006	Initial Fre&q. (Hz)
FREQFINAL	QUANT	1.00000E+000	Final Fre&q. (Hz)
PTSPERDEC	QUANT	1.00000E+001	Points/&decade
VAC	QUANT	2.50000E+001	AC &Voltage (mV rms)
AREA	QUANT	1.00000E-002	&Area (cm^2)
CONDIT	TWOPARAM	T	5.00000E+000	0.00000E+000	Conditionin&g	Time(s)	E(V)
DELAY	TWOPARAM	T	5.00000E+000	0.00000E+000	Init. De&lay	Time(s)	Stab.(mV/s)
SPEED	SELECTOR	1	&Optimize for:
ZGUESS	QUANT	1.00000E+007	E&stimated Z (ohms)
OCVCURVE	TABLE	19
	Pt	T	Vf	Vm	Ach	Over
	#	s	V vs. Ref.	V	V	bits
	0	0.258333	3.88069E-003	3.88069E-003	5.63932E-004	...........
	1	0.516667	3.88082E-003	3.88741E-003	5.63632E-004	...........
	2	0.775	3.88073E-003	3.84756E-003	5.65366E-004	...........
	3	1.03333	3.87591E-003	3.72486E-003	5.66166E-004	...........
	4	1.29167	3.85682E-003	3.72488E-003	5.68032E-004	...........
	5	1.55	3.81878E-003	3.65056E-003	5.61666E-004	...........
	6	1.80833	3.76035E-003	3.18562E-003	5.65566E-004	...........
	7	2.06667	3.66956E-003	3.37959E-003	5.64032E-004	...........
	8	2.325	3.54963E-003	3.41225E-003	5.62632E-004	...........
	9	2.58333	3.44531E-003	3.47115E-003	5.61366E-004	...........
	10	2.84167	3.39986E-003	3.53309E-003	5.60099E-004	...........
	11	3.1	3.41222E-003	3.53213E-003	5.60366E-004	...........
	12	3.35833	3.45254E-003	3.51121E-003	5.66499E-004	...........
	13	3.61667	3.49090E-003	3.50898E-003	5.60832E-004	...........
	14	3.875	3.51107E-003	3.45907E-003	5.55566E-004	...........
	15	4.13333	3.51061E-003	3.42563E-003	5.60266E-004	...........
	16	4.39167	3.49411E-003	3.43334E-003	5.63866E-004	...........
	17	4.65	3.47036E-003	3.43335E-003	5.59532E-004	...........
	18	4.90833	3.44944E-003	3.42154E-003	5.66032E-004	...........
EOC	QUANT	0.0034494	Open Circuit (V)
PSTATMODEL	IQUANT	4	Pstat Model
PSTATSECTION	LABEL	REF600-11020	Pstat Section
PSTATSERIALNO	LABEL	11020	Pstat Serial Number
CTRLMODE	IQUANT	1	Control Mode
IESTAB	IQUANT	0	I/E Stability
CASPEED	IQUANT	1	Control Amp Speed
CONVENTION	IQUANT	1	Current Convention
ICHRANGE	IQUANT	2	Ich Range
ICHRANGEMODE	TOGGLE	F	Ich Auto Range
ICHOFFSETENABLE	TOGGLE	T	Ich Offset Enable
ICHOFFSET	QUANT	0	Ich Offset (V)
ICHFILTER	IQUANT	3	Ich Filter
VCHRANGE	IQUANT	2	Vch Range
VCHRANGEMODE	TOGGLE	F	Vch Auto Range
VCHOFFSETENABLE	TOGGLE	T	Vch Offset Enable
VCHOFFSET	QUANT	0	Vch Offset (V)
VCHFILTER	IQUANT	3	Vch Filter
ACHRANGE	IQUANT	2	Ach Range
ACHOFFSETENABLE	TOGGLE	F	Ach Offset Enable
ACHOFFSET	QUANT	0	Ach Offset (V)
ACHFILTER	IQUANT	3	Ach Filter
IERANGELOWERLIMIT	IQUANT	1	I/E Range Lower Limit
IERANGEMODE	TOGGLE	F	I/E AutoRange
IERANGE	IQUANT	2	I/E Range
POSFEEDENABLE	TOGGLE	F	Positive Feedback IR Comp
POSFEEDRESISTANCE	QUANT	0	Positive Feedback Resistance (ohm)
ACHSELECT	IQUANT	0	Ach Select
CABLEID	IQUANT	14	Cable ID
DCCALDATE	LABEL	8/19/2019	DC Calibration Date
ACCALDATE	LABEL	8/19/2019	AC Calibration Date
THERMOSELECT	IQUANT	1	Thermo Select
FRAMEWORKVERSION	QUANT	6.33	Framework Version
INSTRUMENTVERSION	LABEL	3.50	Instrument Version
ZCURVE	TABLE
	Pt	Time	Freq	Zreal	Zimag	Zsig	Zmod	Zphz	Idc	Vdc	IERange
	#	s	Hz	ohm	ohm	V	ohm	°	A	V	#
	0	2	1000078	2135.203	-824.5516	1	2288.881	-21.11507	8.689919E-006	0.0044017	8
	1	4	794390.6	2245.636	-720.5693	1	2358.41	-17.79016	-7.45488E-006	0.0063844	8
	2	5	630984.4	2342.31	-628.0603	1	2425.052	-15.01005	-4.410556E-007	0.0057275	8
	3	6	501234.4	2404.001	-529.9269	1	2461.716	-12.43121	2.305382E-007	0.0051089	8
	4	8	398109.4	2460.062	-450.6196	1	2500.993	-10.38003	1.777524E-007	0.0050457	8
	5	9	316265.6	2494.902	-385.8645	1	2524.565	-8.791774	3.826971E-006	0.0044648	8
	6	10	251203.1	2526.726	-338.8239	1	2549.342	-7.637575	3.585614E-006	0.0044786	8
	7	12	199546.9	2552.032	-304.6088	1	2570.147	-6.806583	1.658477E-006	0.0047138	8
	8	13	158578.1	2584.02	-268.584	1	2597.941	-5.934035	1.83723E-006	0.0047865	8
	9	14	125953.1	2608.564	-215.655	1	2617.463	-4.726005	-9.315851E-007	0.0075262	7
	10	16	100078.1	2624.33	-198.7821	1	2631.848	-4.331645	-2.070845E-008	0.0052602	7
	11	17	79453.13	2642.079	-197.7673	1	2649.47	-4.280772	4.737265E-008	0.0049759	7
	12	18	63140.62	2660.776	-200.4078	1	2668.313	-4.307346	-4.789813E-008	0.0052165	7
	13	20	50203.12	2681.127	-206.3725	1	2689.058	-4.401509	-2.237583E-008	0.0051076	7
	14	21	39890.62	2701.256	-215.3704	1	2709.828	-4.558534	-3.67934E-008	0.0052381	7
	15	22	31640.63	2724.028	-226.8322	1	2733.456	-4.760088	7.920528E-008	0.0049725	7
	16	24	25171.88	2747.512	-243.6449	1	2758.293	-5.06764	-6.317032E-008	0.0051997	7
	17	25	20015.62	2772.004	-263.9523	1	2784.542	-5.439349	-3.050648E-008	0.0051105	7
	18	26	15890.62	2798.214	-290.0319	1	2813.205	-5.917515	6.370167E-008	0.0050978	7
	19	28	12609.37	2825.584	-321.4521	1	2843.811	-6.490341	-1.788134E-008	0.0051653	7
	20	29	10078.13	2854.16	-358.7899	1	2876.623	-7.164937	-3.37312E-009	0.0051307	7
	21	30	8015.625	2885.014	-405.8871	1	2913.426	-8.008273	1.291824E-007	0.0049205	7
	22	32	6328.125	2919.712	-465.0805	1	2956.521	-9.050601	-2.816085E-008	0.0051113	7
	23	33	5015.625	2955.713	-536.139	1	3003.945	-10.28114	-4.917937E-008	0.005173	7
	24	34	3984.375	2994.036	-622.5714	1	3058.079	-11.74654	-1.906744E-008	0.0052429	7
	25	36	3170.956	3036.193	-727.4125	1	3122.115	-13.473	7.86146E-008	0.0049577	7
	26	37	2527.573	3082.859	-854.6767	1	3199.139	-15.49524	1.713589E-008	0.0050315	7
	27	38	1976.103	3138.758	-1024.268	1	3301.656	-18.07301	-3.773096E-008	0.0051682	7
	28	40	1577.524	3196.824	-1215.484	1	3420.101	-20.81762	-2.232569E-008	0.005096	7
	29	41	1265.625	3253.898	-1437.042	1	3557.097	-23.82803	3.195981E-008	0.0050723	7
	30	42	998.264	3338.239	-1741.139	1	3765.024	-27.54538	-5.08237E-008	0.005181	7
	31	44	796.875	3420.881	-2091.635	1	4009.658	-31.44293	-2.89282E-008	0.0051638	7
	32	45	627.7902	3523.632	-2544.676	1	4346.419	-35.83584	-5.201135E-008	0.0051765	7
	33	46	505.5147	3630.972	-3051.947	1	4743.242	-40.04811	-4.902936E-008	0.0051801	7
	34	48	397.9953	3771.83	-3744.726	1	5315.042	-44.7934	5.191124E-009	0.0051157	7
	35	49	315.5048	3936.011	-4576.422	1	6036.209	-49.30239	5.845389E-009	0.0051131	7
	36	50	252.4038	4128.73	-5558.677	1	6924.254	-53.39673	6.110529E-009	0.005116	7
	37	52	198.6229	4387.352	-6860.679	1	8143.572	-57.4014	6.153526E-009	0.0051114	7
	38	53	158.3615	4698.063	-8377.221	1	9604.67	-60.71568	5.527353E-009	0.0051125	7
	39	54	125.558	5106.902	-10283.98	1	11482.19	-63.59155	1.641263E-009	0.0050526	6
	40	56	100.4464	5606.94	-12527.9	1	13725.38	-65.88879	1.902381E-009	0.0050508	6
	41	57	79.00281	6305.944	-15482.15	1	16717.12	-67.83873	9.239345E-010	0.0050494	6
	42	58	63.3446	7107.552	-18854.21	1	20149.4	-69.34485	8.005325E-010	0.0050458	6
	43	60	49.86702	8366.561	-23005.04	1	24479.2	-70.0145	4.235907E-010	0.0050464	6
	44	61	39.72458	9861.5	-28083.12	1	29764.25	-70.65107	9.279303E-010	0.0050529	6
	45	63	31.6723	11850.44	-34053.37	1	36056.41	-70.81229	3.371752E-010	0.0050517	6
	46	64	24.93351	14499.81	-41498.36	1	43958.59	-70.74023	9.886428E-010	0.0050461	6
	47	65	19.86229	17775.89	-49920.43	1	52990.86	-70.39998	1.057633E-009	0.0050518	6
	48	67	15.83615	21663.35	-59642.18	1	63454.63	-70.03786	7.24779E-010	0.0050521	6
	49	68	12.40079	27441.05	-72093.8	1	77139.66	-69.16168	2.091029E-009	0.0050494	6
	50	69	9.93114	34158.82	-85588.25	1	92152.99	-68.24274	3.099786E-010	0.0050521	6
	51	71	7.944915	42128.86	-100899.6	1	109341.6	-67.33788	-9.182294E-011	0.0050585	5
	52	72	6.317385	52062.91	-119030.4	1	129918.3	-66.37582	6.442936E-013	0.0050715	5
	53	74	5.008013	64242.73	-139954	1	153994.4	-65.34358	8.257073E-010	0.0050593	5
	54	77	3.945707	79372.27	-164985.4	1	183085.1	-64.30842	1.012503E-011	0.0050473	5
	55	80	3.158693	96174.7	-191639.5	1	214418.5	-63.35012	5.753841E-010	0.0050574	5
	56	83	2.504006	116993	-223066.6	1	251885	-62.32408	7.168399E-011	0.0050628	5
	57	86	1.998082	139879.9	-257231.4	1	292804.3	-61.46309	7.501171E-010	0.0050477	5
	58	89	1.584686	168694	-297234.1	1	341768.6	-60.42311	2.462546E-010	0.0049991	5
	59	92	1.266892	199131.5	-341467.3	1	395288.9	-59.7508	4.912104E-010	0.0050696	5
	60	97	0.999041	237531.6	-394506.2	1	460495.8	-58.94791	-1.381848E-010	0.0050078	5
