EXPLAIN
TAG	EISPOT
TITLE	LABEL	Potentiostatic EIS	Test &Identifier
DATE	LABEL	10/26/2019	Date
TIME	LABEL	11:00:23	Time
NOTES	NOTES	1	&Notes...
	
PSTAT	PSTAT	REF600-11020	Potentiostat
VDC	POTEN	0.00000E+000	T	DC &Voltage (V)
FREQINIT	QUANT	1.00000E+006	Initial Fre&q. (Hz)
FREQFINAL	QUANT	1.00000E+000	Final Fre&q. (Hz)
PTSPERDEC	QUANT	1.00000E+001	Points/&decade
VAC	QUANT	2.50000E+001	AC &Voltage (mV rms)
AREA	QUANT	1.00000E-002	&Area (cm^2)
CONDIT	TWOPARAM	T	5.00000E+000	0.00000E+000	Conditionin&g	Time(s)	E(V)
DELAY	TWOPARAM	T	5.00000E+000	0.00000E+000	Init. De&lay	Time(s)	Stab.(mV/s)
SPEED	SELECTOR	0	&Optimize for:
ZGUESS	QUANT	1.00000E+005	E&stimated Z (ohms)
OCVCURVE	TABLE	19
	Pt	T	Vf	Vm	Ach	Over
	#	s	V vs. Ref.	V	V	bits
	0	0.258333	2.87570E-003	2.87570E-003	5.43133E-004	...........
	1	0.516667	2.86890E-003	2.51979E-003	5.39599E-004	...........
	2	0.775	2.82761E-003	2.20647E-003	5.46366E-004	...........
	3	1.03333	2.71260E-003	1.92033E-003	5.46533E-004	...........
	4	1.29167	2.51120E-003	1.65562E-003	5.36933E-004	...........
	5	1.55	2.25053E-003	1.40914E-003	5.38799E-004	...........
	6	1.80833	1.97054E-003	1.18660E-003	5.37533E-004	...........
	7	2.06667	1.69879E-003	9.74215E-004	5.39633E-004	...........
	8	2.325	1.44644E-003	7.73499E-004	5.43199E-004	...........
	9	2.58333	1.21420E-003	5.86252E-004	5.41899E-004	...........
	10	2.84167	9.98902E-004	4.06332E-004	5.38033E-004	...........
	11	3.1	7.97466E-004	2.44941E-004	5.36533E-004	...........
	12	3.35833	6.08200E-004	8.68489E-005	5.39066E-004	...........
	13	3.61667	4.30263E-004	-6.50058E-005	5.38566E-004	...........
	14	3.875	2.62549E-004	-2.07941E-004	5.40966E-004	...........
	15	4.13333	1.03592E-004	-3.44870E-004	5.39266E-004	...........
	16	4.39167	-4.77350E-005	-4.76278E-004	5.36466E-004	...........
	17	4.65	-1.92062E-004	-5.99899E-004	5.44399E-004	...........
	18	4.90833	-3.29738E-004	-7.17989E-004	5.39966E-004	...........
EOC	QUANT	-0.0003297	Open Circuit (V)
PSTATMODEL	IQUANT	4	Pstat Model
PSTATSECTION	LABEL	REF600-11020	Pstat Section
PSTATSERIALNO	LABEL	11020	Pstat Serial Number
CTRLMODE	IQUANT	1	Control Mode
IESTAB	IQUANT	0	I/E Stability
CASPEED	IQUANT	1	Control Amp Speed
CONVENTION	IQUANT	1	Current Convention
ICHRANGE	IQUANT	2	Ich Range
ICHRANGEMODE	TOGGLE	F	Ich Auto Range
ICHOFFSETENABLE	TOGGLE	T	Ich Offset Enable
ICHOFFSET	QUANT	0	Ich Offset (V)
ICHFILTER	IQUANT	3	Ich Filter
VCHRANGE	IQUANT	2	Vch Range
VCHRANGEMODE	TOGGLE	F	Vch Auto Range
VCHOFFSETENABLE	TOGGLE	T	Vch Offset Enable
VCHOFFSET	QUANT	0	Vch Offset (V)
VCHFILTER	IQUANT	3	Vch Filter
ACHRANGE	IQUANT	2	Ach Range
ACHOFFSETENABLE	TOGGLE	F	Ach Offset Enable
ACHOFFSET	QUANT	0	Ach Offset (V)
ACHFILTER	IQUANT	3	Ach Filter
IERANGELOWERLIMIT	IQUANT	1	I/E Range Lower Limit
IERANGEMODE	TOGGLE	F	I/E AutoRange
IERANGE	IQUANT	3	I/E Range
POSFEEDENABLE	TOGGLE	F	Positive Feedback IR Comp
POSFEEDRESISTANCE	QUANT	0	Positive Feedback Resistance (ohm)
ACHSELECT	IQUANT	0	Ach Select
CABLEID	IQUANT	14	Cable ID
DCCALDATE	LABEL	8/19/2019	DC Calibration Date
ACCALDATE	LABEL	8/19/2019	AC Calibration Date
THERMOSELECT	IQUANT	1	Thermo Select
FRAMEWORKVERSION	QUANT	6.33	Framework Version
INSTRUMENTVERSION	LABEL	3.50	Instrument Version
ZCURVE	TABLE
	Pt	Time	Freq	Zreal	Zimag	Zsig	Zmod	Zphz	Idc	Vdc	IERange
	#	s	Hz	ohm	ohm	V	ohm	°	A	V	#
	0	1	1000078	1932.172	-890.1771	1	2127.37	-24.73615	5.728695E-006	0.0014088	8
	1	2	794390.6	2075.409	-829.506	1	2235.04	-21.78576	-4.116426E-006	0.002094	8
	2	2	630984.4	2203.129	-761.6013	1	2331.054	-19.0698	1.977918E-006	0.0013109	8
	3	2	501234.4	2311.128	-682.6425	1	2409.837	-16.45566	-4.045763E-006	0.0022949	8
	4	3	398109.4	2396.787	-616.7659	1	2474.871	-14.43084	-1.351268E-006	0.0016919	8
	5	3	316265.6	2458.536	-553.2035	1	2520.006	-12.68112	1.083086E-006	0.0009825	8
	6	3	251203.1	2524.204	-511.4279	1	2575.493	-11.45363	8.942744E-007	0.0011385	8
	7	4	199546.9	2575.748	-464.7703	1	2617.344	-10.22844	-2.408673E-006	0.0018372	8
	8	4	158578.1	2621.819	-437.6225	1	2658.091	-9.476199	-2.340179E-006	0.0016638	8
	9	4	125953.1	2684.897	-391.3331	1	2713.266	-8.292664	4.744299E-007	0.0003318	7
	10	5	100078.1	2714.351	-382.5827	1	2741.18	-8.022883	5.143628E-009	0.0012281	7
	11	5	79453.13	2753.587	-390.8156	1	2781.183	-8.078017	6.22716E-008	0.0012388	7
	12	5	63140.62	2796.899	-405.1877	1	2826.096	-8.243113	-1.449183E-008	0.0012497	7
	13	6	50203.12	2842.981	-425.2071	1	2874.603	-8.506321	-8.805114E-009	0.0012303	7
	14	6	39890.62	2892.8	-449.3355	1	2927.49	-8.829135	-2.665911E-008	0.0012766	7
	15	6	31640.63	2947.308	-478.1736	1	2985.846	-9.215415	-9.508326E-009	0.0012925	7
	16	7	25171.88	3004.737	-512.6131	1	3048.149	-9.68155	3.796589E-009	0.001215	7
	17	7	20015.62	3065.523	-550.3926	1	3114.541	-10.1786	-1.406053E-008	0.001249	7
	18	7	15890.62	3132.106	-599.2511	1	3188.917	-10.83124	-5.97683E-008	0.0013549	7
	19	7	12609.37	3203.133	-653.5552	1	3269.128	-11.53212	-3.588695E-008	0.0012833	7
	20	8	10078.13	3275.574	-712.8807	1	3352.251	-12.27812	-1.416991E-008	0.0012483	7
	21	8	8015.625	3352.022	-782.8002	1	3442.212	-13.14475	6.142319E-008	0.0012271	7
	22	8	6328.125	3435.653	-869.356	1	3543.937	-14.20004	-1.017876E-008	0.0012927	7
	23	9	5015.625	3519.488	-969.573	1	3650.598	-15.40218	-4.820174E-009	0.0012675	7
	24	9	3984.375	3605.47	-1090.512	1	3766.78	-16.82849	-7.95659E-009	0.0012281	7
	25	9	3170.956	3690.181	-1237.61	1	3892.186	-18.54038	-1.696337E-009	0.0012688	7
	26	10	2527.573	3777.23	-1416.029	1	4033.932	-20.5503	-3.172387E-008	0.0012715	7
	27	10	1976.103	3876.446	-1662.84	1	4218.041	-23.2174	-1.363546E-008	0.0012938	7
	28	10	1577.524	3954.938	-1925.359	1	4398.698	-25.95793	-1.181023E-008	0.0013668	7
	29	11	1265.625	4074.748	-2281.172	1	4669.83	-29.24147	-1.419336E-008	0.0012421	7
	30	11	998.264	4194.117	-2735.467	1	5007.334	-33.11301	-5.533472E-008	0.0013582	7
	31	11	796.875	4327.192	-3267.036	1	5422.003	-37.05285	-7.600256E-009	0.001228	7
	32	12	627.7902	4485.88	-3973.318	1	5992.527	-41.53255	-2.226786E-009	0.0012632	7
	33	12	505.5147	4658.478	-4758.038	1	6658.854	-45.60576	4.710762E-009	0.0012034	7
	34	12	397.9953	4882.876	-5832.983	1	7606.982	-50.0668	2.307458E-009	0.0012809	7
	35	13	315.5048	5157.255	-7125.041	1	8795.651	-54.10218	3.227714E-009	0.0012764	7
	36	13	252.4038	5490.035	-8647.781	1	10243.27	-57.59062	1.180108E-009	0.001214	6
	37	13	198.6229	5941.394	-10654.68	1	12199.28	-60.85455	8.392582E-010	0.0012154	6
	38	14	158.3615	6486.984	-12977.7	1	14508.68	-63.44154	6.220807E-010	0.0012155	6
	39	14	125.558	7210.37	-15882.11	1	17442.22	-65.58228	6.917052E-010	0.0012182	6
	40	14	100.4464	8117.377	-19243.12	1	20885.15	-67.1284	-7.600326E-010	0.0012165	6
	41	15	79.00281	9403.876	-23660.62	1	25460.9	-68.32473	-3.688777E-011	0.0012137	6
	42	15	63.3446	10525.25	-28595.28	1	30470.82	-69.79253	1.044269E-009	0.001212	6
	43	15	49.86702	12586.15	-34869.1	1	37071.09	-70.15274	8.73237E-010	0.0012127	6
	44	16	39.72458	15308.92	-42134.4	1	44829.36	-70.03212	7.089582E-010	0.001215	6
	45	16	31.6723	18479.02	-50600.49	1	53869.13	-69.93808	5.048308E-010	0.0012119	6
	46	16	24.93351	22499.23	-61360.99	1	65355.85	-69.86353	1.260323E-010	0.0012153	6
	47	17	19.86229	27358.94	-73463.02	1	78392.14	-69.57378	6.022437E-010	0.0012197	6
	48	17	15.83615	33617.41	-87986.45	1	94189.95	-69.0894	4.916823E-010	0.0012167	6
	49	17	12.40079	41896.47	-106284.2	1	114243.8	-68.48599	1.869316E-011	0.0012205	5
	50	18	9.93114	50690.94	-124783.1	1	134686.2	-67.89141	-3.5105E-010	0.0012155	5
	51	18	7.944915	61735.6	-146909	1	159353.5	-67.20639	-7.747467E-010	0.0012187	5
	52	19	6.317385	75734.37	-173555.1	1	189359.6	-66.42495	-5.258746E-010	0.0012313	5
	53	20	5.008013	92570.05	-204719.4	1	224675.9	-65.66846	-1.468727E-010	0.0012139	5
	54	21	3.945707	114092.1	-241892	1	267448.5	-64.74837	3.258458E-010	0.0012101	5
	55	22	3.158693	136679.5	-281487.3	1	312915.9	-64.10056	1.91609E-010	0.0012281	5
	56	24	2.504006	165537.3	-329370.9	1	368629.6	-63.31653	-5.341501E-011	0.0012198	5
	57	25	1.998082	197209.9	-381815.3	1	429737.9	-62.68338	8.319027E-011	0.0012174	5
	58	27	1.584686	236627.6	-443849.2	1	502985.8	-61.93676	1.928038E-010	0.0012606	5
	59	28	1.266892	278626	-513816.6	1	584499.7	-61.53047	1.789704E-010	0.0012507	5
	60	31	0.999041	328819	-598174.9	1	682594.4	-61.20224	1.554502E-010	0.00123	5
