EXPLAIN
TAG	EISPOT
TITLE	LABEL	Potentiostatic EIS	Test &Identifier
DATE	LABEL	11/5/2019	Date
TIME	LABEL	9:26:35	Time
NOTES	NOTES	2	&Notes...
	
	
PSTAT	PSTAT	REF600-11020	Potentiostat
VDC	POTEN	0.00000E+000	T	DC &Voltage (V)
FREQINIT	QUANT	1.00000E+006	Initial Fre&q. (Hz)
FREQFINAL	QUANT	1.00000E+000	Final Fre&q. (Hz)
PTSPERDEC	QUANT	1.00000E+001	Points/&decade
VAC	QUANT	2.50000E+001	AC &Voltage (mV rms)
AREA	QUANT	1.00000E-002	&Area (cm^2)
CONDIT	TWOPARAM	T	5.00000E+000	0.00000E+000	Conditionin&g	Time(s)	E(V)
DELAY	TWOPARAM	T	5.00000E+000	0.00000E+000	Init. De&lay	Time(s)	Stab.(mV/s)
SPEED	SELECTOR	1	&Optimize for:
ZGUESS	QUANT	1.00000E+005	E&stimated Z (ohms)
OCVCURVE	TABLE	19
	Pt	T	Vf	Vm	Ach	Over
	#	s	V vs. Ref.	V	V	bits
	0	0.258333	5.34643E-003	5.34643E-003	5.65866E-004	...........
	1	0.516667	5.34425E-003	5.23238E-003	5.72632E-004	...........
	2	0.775	5.33104E-003	5.13338E-003	5.67832E-004	...........
	3	1.03333	5.29440E-003	5.04533E-003	5.65532E-004	...........
	4	1.29167	5.23067E-003	4.96787E-003	5.65066E-004	...........
	5	1.55	5.14961E-003	4.91734E-003	5.71999E-004	...........
	6	1.80833	5.06591E-003	4.85935E-003	5.67899E-004	...........
	7	2.06667	4.99035E-003	4.83802E-003	5.66632E-004	...........
	8	2.325	4.92697E-003	4.76573E-003	5.64099E-004	...........
	9	2.58333	4.87367E-003	4.73113E-003	5.64866E-004	...........
	10	2.84167	4.82561E-003	4.69467E-003	5.65499E-004	...........
	11	3.1	4.78039E-003	4.66913E-003	5.69132E-004	...........
	12	3.35833	4.73909E-003	4.64026E-003	5.64099E-004	...........
	13	3.61667	4.70331E-003	4.63148E-003	5.65499E-004	...........
	14	3.875	4.67310E-003	4.58221E-003	5.70266E-004	...........
	15	4.13333	4.64624E-003	4.56059E-003	5.64266E-004	...........
	16	4.39167	4.62035E-003	4.57867E-003	5.64899E-004	...........
	17	4.65	4.60304E-003	4.87277E-003	5.67399E-004	...........
	18	4.90833	4.61635E-003	4.82940E-003	5.68799E-004	...........
EOC	QUANT	0.0046163	Open Circuit (V)
PSTATMODEL	IQUANT	4	Pstat Model
PSTATSECTION	LABEL	REF600-11020	Pstat Section
PSTATSERIALNO	LABEL	11020	Pstat Serial Number
CTRLMODE	IQUANT	1	Control Mode
IESTAB	IQUANT	0	I/E Stability
CASPEED	IQUANT	1	Control Amp Speed
CONVENTION	IQUANT	1	Current Convention
ICHRANGE	IQUANT	2	Ich Range
ICHRANGEMODE	TOGGLE	F	Ich Auto Range
ICHOFFSETENABLE	TOGGLE	T	Ich Offset Enable
ICHOFFSET	QUANT	0	Ich Offset (V)
ICHFILTER	IQUANT	3	Ich Filter
VCHRANGE	IQUANT	2	Vch Range
VCHRANGEMODE	TOGGLE	F	Vch Auto Range
VCHOFFSETENABLE	TOGGLE	T	Vch Offset Enable
VCHOFFSET	QUANT	0	Vch Offset (V)
VCHFILTER	IQUANT	3	Vch Filter
ACHRANGE	IQUANT	2	Ach Range
ACHOFFSETENABLE	TOGGLE	F	Ach Offset Enable
ACHOFFSET	QUANT	0	Ach Offset (V)
ACHFILTER	IQUANT	3	Ach Filter
IERANGELOWERLIMIT	IQUANT	1	I/E Range Lower Limit
IERANGEMODE	TOGGLE	F	I/E AutoRange
IERANGE	IQUANT	4	I/E Range
POSFEEDENABLE	TOGGLE	F	Positive Feedback IR Comp
POSFEEDRESISTANCE	QUANT	0	Positive Feedback Resistance (ohm)
ACHSELECT	IQUANT	0	Ach Select
CABLEID	IQUANT	14	Cable ID
DCCALDATE	LABEL	8/19/2019	DC Calibration Date
ACCALDATE	LABEL	8/19/2019	AC Calibration Date
THERMOSELECT	IQUANT	1	Thermo Select
FRAMEWORKVERSION	QUANT	6.33	Framework Version
INSTRUMENTVERSION	LABEL	3.50	Instrument Version
ZCURVE	TABLE
	Pt	Time	Freq	Zreal	Zimag	Zsig	Zmod	Zphz	Idc	Vdc	IERange
	#	s	Hz	ohm	ohm	V	ohm	°	A	V	#
	0	2	1000078	2243.743	-1645.862	1	2782.669	-36.26132	-1.463282E-005	0.0078461	8
	1	3	794390.6	2595.715	-1593.074	1	3045.59	-31.53879	4.304857E-006	0.0058713	8
	2	5	630984.4	2895.725	-1477.885	1	3251.056	-27.0383	-2.702697E-006	0.0066652	8
	3	6	501234.4	3153.941	-1335.839	1	3425.173	-22.95488	8.236686E-006	0.0052563	8
	4	8	398109.4	3362.044	-1177.017	1	3562.122	-19.29462	5.731594E-006	0.0048693	8
	5	9	316265.6	3513.718	-1029.424	1	3661.411	-16.32915	-1.028419E-006	0.0057336	8
	6	10	251203.1	3626.571	-883.7823	1	3732.705	-13.69582	-1.965653E-006	0.0061423	8
	7	12	199546.9	3721.507	-749.3331	1	3796.197	-11.3844	-4.503824E-006	0.0063569	8
	8	13	158578.1	3782.859	-666.1198	1	3841.059	-9.98678	-2.048232E-007	0.0057476	8
	9	14	125953.1	3863.126	-509.455	1	3896.574	-7.512608	-1.748719E-006	0.0093272	7
	10	16	100078.1	3890.508	-452.3026	1	3916.712	-6.631322	5.404252E-008	0.0070258	7
	11	17	79453.13	3927.916	-412.0096	1	3949.465	-5.98801	6.245937E-007	0.0062307	7
	12	19	63140.62	3959.064	-385.1855	1	3977.758	-5.556935	-6.670151E-007	0.0076684	7
	13	20	50203.12	3986.986	-369.4423	1	4004.066	-5.294027	-1.084219E-006	0.0065024	7
	14	21	39890.62	4017.046	-364.872	1	4033.583	-5.189986	-3.008043E-007	0.0050675	7
	15	23	31640.63	4046.311	-367.3065	1	4062.948	-5.186846	1.427577E-007	0.004531	7
	16	24	25171.88	4077.327	-381.9954	1	4095.182	-5.352287	1.034782E-006	0.0042166	7
	17	25	20015.62	4108.417	-406.3742	1	4128.466	-5.6489	5.281196E-007	0.0042229	7
	18	27	15890.62	4141.69	-438.217	1	4164.809	-6.039784	8.299904E-007	0.0041216	7
	19	28	12609.37	4170.258	-484.3042	1	4198.286	-6.624252	-1.287994E-006	0.0074934	7
	20	29	10078.13	4210.45	-535.5616	1	4244.375	-7.248992	1.153527E-006	0.0048147	7
	21	31	8015.625	4248.535	-612.732	1	4292.493	-8.206721	-3.019935E-007	0.0050595	7
	22	32	6328.125	4289.832	-709.4568	1	4348.102	-9.390636	3.913322E-007	0.0065575	7
	23	34	5015.625	4335.346	-827.459	1	4413.605	-10.80571	8.32047E-007	0.004121	7
	24	35	3984.375	4377.89	-975.876	1	4485.337	-12.56636	3.928027E-007	0.0065636	7
	25	36	3170.956	4435.724	-1151.193	1	4582.673	-14.54886	-1.270327E-006	0.0070915	7
	26	38	2527.573	4499.553	-1371.509	1	4703.936	-16.95175	8.578458E-007	0.0057846	7
	27	39	1976.103	4579.546	-1669.376	1	4874.327	-20.02825	8.32047E-007	0.0041217	7
	28	40	1577.524	4638.627	-2010.872	1	5055.736	-23.43702	-1.081364E-006	0.0064925	7
	29	42	1265.625	4756.524	-2391.799	1	5324.023	-26.69535	-9.492239E-007	0.0077341	7
	30	43	998.264	4875.696	-2911.789	1	5678.99	-30.84585	-1.288327E-006	0.007491	7
	31	45	796.875	5010.86	-3517.551	1	6122.245	-35.06829	-3.192084E-007	0.0074099	7
	32	46	627.7902	5173.116	-4313.399	1	6735.469	-39.82171	1.055077E-006	0.0052634	7
	33	47	505.5147	5355.555	-5177.793	1	7449.263	-44.03316	-1.155113E-006	0.007664	7
	34	49	397.9953	5583.283	-6370.385	1	8470.823	-48.76727	2.127586E-009	0.0060134	7
	35	50	315.5048	5853.938	-7797.359	1	9750.25	-53.10228	4.72338E-009	0.0060078	7
	36	52	252.4038	6176.737	-9485.602	1	11319.4	-56.92904	2.030347E-010	0.0059392	6
	37	53	198.6229	6599.139	-11722.28	1	13452.16	-60.62236	1.368469E-009	0.0059341	6
	38	54	158.3615	7106.009	-14329.13	1	15994.36	-63.62257	8.674262E-010	0.0059473	6
	39	56	125.558	7768.647	-17623.99	1	19260.24	-66.21214	6.305831E-010	0.0059463	6
	40	57	100.4464	8614.471	-21477.85	1	23141.03	-68.14496	1.189319E-009	0.0059424	6
	41	58	79.00281	9802.76	-26609.44	1	28357.65	-69.7765	-3.069912E-010	0.0059445	6
	42	60	63.3446	11206.11	-32647.25	1	34516.95	-71.05531	4.226309E-010	0.0059312	6
	43	61	49.86702	13007.67	-39686.93	1	41764.24	-71.85308	-1.343145E-010	0.005934	6
	44	63	39.72458	15699.75	-48565.14	1	51039.73	-72.08543	1.463741E-009	0.0059382	6
	45	64	31.6723	19190.49	-59091.97	1	62130	-72.00847	2.78238E-010	0.0059436	6
	46	66	24.93351	23693.5	-72340.05	1	76121.38	-71.86485	9.675569E-010	0.0059448	6
	47	67	19.86229	29642.07	-87381.78	1	92272.57	-71.26179	4.687895E-010	0.0059505	6
	48	68	15.83615	37465.5	-103653.4	1	110216.6	-70.12762	1.75372E-009	0.0059321	5
	49	70	12.40079	48914.17	-126539.5	1	135664.4	-68.86585	1.677346E-009	0.0059366	5
	50	71	9.93114	60992.18	-149811.9	1	161751.8	-67.84753	6.428989E-011	0.0059547	5
	51	73	7.944915	77510.83	-176420.8	1	192697.3	-66.28162	6.936882E-010	0.0059544	5
	52	74	6.317385	97522.1	-206251.1	1	228144.9	-64.69373	-1.820957E-011	0.0059693	5
	53	76	5.008013	122942.4	-239717.9	1	269405.9	-62.84839	2.392475E-012	0.0059482	5
	54	79	3.945707	153086.2	-276999.3	1	316487	-61.07237	4.78506E-010	0.0059548	5
	55	82	3.158693	185905.5	-315598	1	366282.6	-59.49944	-1.022396E-010	0.0059289	5
	56	85	2.504006	224047.9	-358507.1	1	422758.5	-57.99681	5.878318E-010	0.005951	5
	57	88	1.998082	264949.3	-404389.7	1	483455.4	-56.76786	4.340147E-010	0.0059691	5
	58	91	1.584686	311120.6	-455839.4	1	551892.8	-55.68559	1.539869E-010	0.0058995	5
	59	95	1.266892	357620.9	-513008.8	1	625356.5	-55.11946	2.788803E-010	0.005952	5
	60	99	0.999041	413063.3	-587274.8	1	717992.3	-54.87913	-1.336932E-010	0.0059239	5
