EXPLAIN
TAG	EISPOT
TITLE	LABEL	Potentiostatic EIS	Test &Identifier
DATE	LABEL	10/12/2019	Date
TIME	LABEL	10:30:17	Time
NOTES	NOTES	1	&Notes...
	
PSTAT	PSTAT	REF600-11020	Potentiostat
VDC	POTEN	0.00000E+000	T	DC &Voltage (V)
FREQINIT	QUANT	1.00000E+006	Initial Fre&q. (Hz)
FREQFINAL	QUANT	1.00000E+000	Final Fre&q. (Hz)
PTSPERDEC	QUANT	1.00000E+001	Points/&decade
VAC	QUANT	2.50000E+001	AC &Voltage (mV rms)
AREA	QUANT	1.00000E-002	&Area (cm^2)
CONDIT	TWOPARAM	T	5.00000E+000	0.00000E+000	Conditionin&g	Time(s)	E(V)
DELAY	TWOPARAM	T	5.00000E+000	0.00000E+000	Init. De&lay	Time(s)	Stab.(mV/s)
SPEED	SELECTOR	1	&Optimize for:
ZGUESS	QUANT	1.00000E+004	E&stimated Z (ohms)
OCVCURVE	TABLE	19
	Pt	T	Vf	Vm	Ach	Over
	#	s	V vs. Ref.	V	V	bits
	0	0.258333	3.49014E-003	3.49014E-003	5.60932E-004	...........
	1	0.516667	3.48648E-003	3.29844E-003	5.53366E-004	...........
	2	0.775	3.46539E-003	3.18972E-003	5.53833E-004	...........
	3	1.03333	3.40955E-003	3.04382E-003	5.57432E-004	...........
	4	1.29167	3.31536E-003	2.91355E-003	5.60266E-004	...........
	5	1.55	3.19414E-003	2.75307E-003	5.56432E-004	...........
	6	1.80833	3.05962E-003	2.66554E-003	5.64099E-004	...........
	7	2.06667	2.92410E-003	2.61249E-003	5.61666E-004	...........
	8	2.325	2.79996E-003	2.49894E-003	5.59799E-004	...........
	9	2.58333	2.69384E-003	2.44899E-003	5.61332E-004	...........
	10	2.84167	2.60381E-003	2.39848E-003	5.59399E-004	...........
	11	3.1	2.52645E-003	2.34346E-003	5.65299E-004	...........
	12	3.35833	2.45980E-003	2.28293E-003	5.64966E-004	...........
	13	3.61667	2.39844E-003	2.12264E-003	5.62166E-004	...........
	14	3.875	2.33067E-003	2.01496E-003	5.63366E-004	...........
	15	4.13333	2.24664E-003	1.96670E-003	5.63166E-004	...........
	16	4.39167	2.15056E-003	1.89819E-003	5.70732E-004	...........
	17	4.65	2.05796E-003	1.88678E-003	5.65832E-004	...........
	18	4.90833	1.97811E-003	1.66052E-003	5.66666E-004	...........
EOC	QUANT	0.0019781	Open Circuit (V)
PSTATMODEL	IQUANT	4	Pstat Model
PSTATSECTION	LABEL	REF600-11020	Pstat Section
PSTATSERIALNO	LABEL	11020	Pstat Serial Number
CTRLMODE	IQUANT	1	Control Mode
IESTAB	IQUANT	0	I/E Stability
CASPEED	IQUANT	1	Control Amp Speed
CONVENTION	IQUANT	1	Current Convention
ICHRANGE	IQUANT	2	Ich Range
ICHRANGEMODE	TOGGLE	F	Ich Auto Range
ICHOFFSETENABLE	TOGGLE	T	Ich Offset Enable
ICHOFFSET	QUANT	0	Ich Offset (V)
ICHFILTER	IQUANT	3	Ich Filter
VCHRANGE	IQUANT	2	Vch Range
VCHRANGEMODE	TOGGLE	F	Vch Auto Range
VCHOFFSETENABLE	TOGGLE	T	Vch Offset Enable
VCHOFFSET	QUANT	0	Vch Offset (V)
VCHFILTER	IQUANT	3	Vch Filter
ACHRANGE	IQUANT	2	Ach Range
ACHOFFSETENABLE	TOGGLE	F	Ach Offset Enable
ACHOFFSET	QUANT	0	Ach Offset (V)
ACHFILTER	IQUANT	3	Ach Filter
IERANGELOWERLIMIT	IQUANT	1	I/E Range Lower Limit
IERANGEMODE	TOGGLE	F	I/E AutoRange
IERANGE	IQUANT	5	I/E Range
POSFEEDENABLE	TOGGLE	F	Positive Feedback IR Comp
POSFEEDRESISTANCE	QUANT	0	Positive Feedback Resistance (ohm)
ACHSELECT	IQUANT	0	Ach Select
CABLEID	IQUANT	14	Cable ID
DCCALDATE	LABEL	8/19/2019	DC Calibration Date
ACCALDATE	LABEL	8/19/2019	AC Calibration Date
THERMOSELECT	IQUANT	1	Thermo Select
FRAMEWORKVERSION	QUANT	6.33	Framework Version
INSTRUMENTVERSION	LABEL	3.50	Instrument Version
ZCURVE	TABLE
	Pt	Time	Freq	Zreal	Zimag	Zsig	Zmod	Zphz	Idc	Vdc	IERange
	#	s	Hz	ohm	ohm	V	ohm	°	A	V	#
	0	1	1000078	2599.5	-1931.456	1	3238.506	-36.61274	-1.74831E-006	0.0047252	8
	1	2	794390.6	2995.256	-1854.844	1	3523.068	-31.7683	1.166058E-006	0.0040397	8
	2	4	630984.4	3343.432	-1713.136	1	3756.777	-27.13008	-2.14481E-006	0.0041684	8
	3	5	501234.4	3635.403	-1551.966	1	3952.816	-23.11781	7.512792E-007	0.0037029	8
	4	6	398109.4	3858.833	-1348.774	1	4087.76	-19.266	4.481108E-007	0.0036924	8
	5	8	316265.6	4047.904	-1166.406	1	4212.604	-16.07436	4.536236E-006	0.0026328	8
	6	9	251203.1	4169.823	-1006.525	1	4289.583	-13.57064	2.7251E-006	0.0030642	8
	7	10	199546.9	4275.472	-878.759	1	4364.846	-11.61454	1.341113E-006	0.0032918	8
	8	12	158578.1	4336.826	-754.0396	1	4401.89	-9.86336	1.314005E-006	0.0032934	8
	9	13	125953.1	4422.96	-620.3506	1	4466.253	-7.984045	-7.59805E-007	0.0052224	7
	10	14	100078.1	4458.492	-572.9049	1	4495.149	-7.322238	9.345882E-008	0.0034789	7
	11	16	79453.13	4501.957	-535.3279	1	4533.673	-6.781202	8.887934E-009	0.0035389	7
	12	17	63140.62	4544.259	-514.279	1	4573.268	-6.456757	-1.165706E-008	0.0035467	7
	13	19	50203.12	4586.209	-505.7411	1	4614.01	-6.292829	1.302755E-008	0.0034875	7
	14	20	39890.62	4630.192	-508.8984	1	4658.074	-6.27213	1.304631E-008	0.0034854	7
	15	21	31640.63	4674.226	-525.787	1	4703.705	-6.418019	-6.262651E-008	0.0036612	7
	16	23	25171.88	4723.368	-556.0255	1	4755.982	-6.713847	-3.192389E-008	0.0035457	7
	17	24	20015.62	4779.837	-598.4347	1	4817.153	-7.136289	-1.15336E-008	0.0035735	7
	18	25	15890.62	4831.078	-648.6747	1	4874.433	-7.647434	-7.180276E-008	0.0037601	7
	19	27	12609.37	4894.603	-718.1508	1	4947.007	-8.347051	5.415034E-008	0.0034608	7
	20	28	10078.13	4958.25	-796.5901	1	5021.833	-9.127118	-3.976248E-008	0.0036356	7
	21	29	8015.625	5030.289	-887.2146	1	5107.93	-10.00264	-1.552571E-009	0.0034882	7
	22	31	6328.125	5115.273	-1020.498	1	5216.075	-11.2824	-1.168833E-008	0.0035734	7
	23	32	5015.625	5200.756	-1166.272	1	5329.92	-12.63951	-1.270565E-008	0.0035775	7
	24	33	3984.375	5302.027	-1346.164	1	5470.251	-14.24615	1.11966E-007	0.0033788	7
	25	35	3170.956	5394.702	-1553.053	1	5613.803	-16.06031	-1.964721E-008	0.0035279	7
	26	36	2527.573	5503.924	-1810.474	1	5794.048	-18.20823	-6.731153E-008	0.0036345	7
	27	37	1976.103	5632.715	-2149.803	1	6029.024	-20.89004	1.124348E-007	0.003373	7
	28	39	1577.524	5770.521	-2544.775	1	6306.726	-23.79728	8.476292E-009	0.0035248	7
	29	40	1265.625	5915.83	-2981.956	1	6624.885	-26.75102	7.16277E-008	0.0033964	7
	30	41	998.264	6092.078	-3578.662	1	7065.426	-30.4312	9.47319E-008	0.003465	7
	31	43	796.875	6289.333	-4266.955	1	7600.171	-34.15466	-6.892208E-008	0.0036398	7
	32	44	627.7902	6522.632	-5164.569	1	8319.706	-38.37191	4.473916E-008	0.003502	7
	33	46	505.5147	6769.643	-6148.685	1	9145.185	-42.24802	7.410664E-008	0.003382	7
	34	47	397.9953	7086.907	-7494.041	1	10314.31	-46.59942	1.267245E-009	0.003491	6
	35	48	315.5048	7441.062	-9101.27	1	11755.96	-50.73108	4.206019E-010	0.0034905	6
	36	50	252.4038	7842.68	-10998.25	1	13508.11	-54.50793	1.205947E-009	0.00349	6
	37	51	198.6229	8358.904	-13514.2	1	15890.4	-58.26207	1.006106E-009	0.0034939	6
	38	52	158.3615	8965.856	-16455.32	1	18739.38	-61.41577	1.082624E-009	0.0034918	6
	39	54	125.558	9736.29	-20154.18	1	22382.72	-64.21525	1.107021E-009	0.0034904	6
	40	55	100.4464	10660.93	-24548.01	1	26763.04	-66.52523	1.116294E-009	0.0034915	6
	41	56	79.00281	11944.03	-30325.82	1	32593.17	-68.50266	1.432031E-009	0.0034933	6
	42	58	63.3446	13702.69	-37092.66	1	39542.75	-69.72487	1.081153E-009	0.0034925	6
	43	59	49.86702	15522.93	-45308.59	1	47893.94	-71.08831	1.44284E-009	0.0034915	6
	44	61	39.72458	18577.49	-55199.86	1	58242.15	-71.39936	9.320327E-010	0.0034959	6
	45	62	31.6723	22292.97	-67001.84	1	70613.19	-71.5966	4.055997E-010	0.0034888	6
	46	63	24.93351	27415.78	-82176.95	1	86629.53	-71.55033	8.774812E-010	0.0034891	6
	47	65	19.86229	33670.73	-99240.4	1	104796.8	-71.25872	1.339995E-009	0.003495	6
	48	66	15.83615	41401.51	-120345.5	1	127267.9	-71.01565	-1.186626E-009	0.0035003	5
	49	68	12.40079	52806.02	-144241.7	1	153603.9	-69.89262	8.0976E-010	0.0034956	5
	50	69	9.93114	67805.29	-172141.2	1	185013.9	-68.50085	-9.059753E-012	0.0034952	5
	51	71	7.944915	84667.12	-203319.3	1	220243.6	-67.39196	5.825999E-010	0.0034934	5
	52	72	6.317385	107180.5	-239570.8	1	262453.5	-65.89697	3.369101E-010	0.0035058	5
	53	74	5.008013	135544.9	-280893.5	1	311887.2	-64.24042	4.638188E-010	0.0034985	5
	54	77	3.945707	170891	-328277.3	1	370094.2	-62.4999	5.131127E-011	0.0034942	5
	55	79	3.158693	210254	-376420.7	1	431160.4	-60.81396	3.829653E-010	0.0035135	5
	56	83	2.504006	258754.3	-431474.6	1	503114.4	-59.04898	-1.667703E-010	0.0034903	5
	57	85	1.998082	312356.7	-488289.6	1	579649.4	-57.39314	-9.264305E-011	0.0034659	5
	58	89	1.584686	374978.9	-549430.1	1	665193.7	-55.68697	1.216349E-010	0.0035378	5
	59	92	1.266892	440930.4	-616211.3	1	757717.6	-54.41436	-1.21219E-010	0.0034895	5
	60	97	0.999041	516047.1	-693972.4	1	864813.4	-53.36502	4.727162E-010	0.0035174	5
