EXPLAIN
TAG	EISPOT
TITLE	LABEL	Potentiostatic EIS	Test &Identifier
DATE	LABEL	10/12/2019	Date
TIME	LABEL	10:13:19	Time
NOTES	NOTES	1	&Notes...
	
PSTAT	PSTAT	REF600-11020	Potentiostat
VDC	POTEN	0.00000E+000	T	DC &Voltage (V)
FREQINIT	QUANT	1.00000E+006	Initial Fre&q. (Hz)
FREQFINAL	QUANT	1.00000E+000	Final Fre&q. (Hz)
PTSPERDEC	QUANT	1.00000E+001	Points/&decade
VAC	QUANT	2.50000E+001	AC &Voltage (mV rms)
AREA	QUANT	1.00000E-002	&Area (cm^2)
CONDIT	TWOPARAM	T	5.00000E+000	0.00000E+000	Conditionin&g	Time(s)	E(V)
DELAY	TWOPARAM	T	5.00000E+000	0.00000E+000	Init. De&lay	Time(s)	Stab.(mV/s)
SPEED	SELECTOR	1	&Optimize for:
ZGUESS	QUANT	1.00000E+004	E&stimated Z (ohms)
OCVCURVE	TABLE	19
	Pt	T	Vf	Vm	Ach	Over
	#	s	V vs. Ref.	V	V	bits
	0	0.258333	6.32187E-003	6.32187E-003	5.58999E-004	...........
	1	0.516667	6.32077E-003	6.26446E-003	5.61666E-004	...........
	2	0.775	6.31382E-003	6.19846E-003	5.61599E-004	...........
	3	1.03333	6.28921E-003	5.91530E-003	5.60199E-004	...........
	4	1.29167	6.22592E-003	5.66969E-003	5.58866E-004	...........
	5	1.55	6.09482E-003	4.98185E-003	5.55433E-004	...........
	6	1.80833	5.87306E-003	5.03623E-003	5.59966E-004	...........
	7	2.06667	5.58485E-003	5.04341E-003	5.53766E-004	...........
	8	2.325	5.30980E-003	4.83543E-003	5.59199E-004	...........
	9	2.58333	5.10940E-003	4.82308E-003	5.67066E-004	...........
	10	2.84167	4.98610E-003	5.10286E-003	5.65666E-004	...........
	11	3.1	4.90049E-003	3.46558E-003	5.65999E-004	...........
	12	3.35833	4.74443E-003	3.09319E-003	5.65432E-004	...........
	13	3.61667	4.42233E-003	4.16697E-003	5.59232E-004	...........
	14	3.875	4.07867E-003	5.80649E-003	5.57233E-004	...........
	15	4.13333	4.06042E-003	6.75937E-003	5.58999E-004	...........
	16	4.39167	4.55589E-003	7.31560E-003	5.61732E-004	...........
	17	4.65	5.39826E-003	7.10261E-003	5.59199E-004	...........
	18	4.90833	6.22563E-003	6.61766E-003	5.58299E-004	...........
EOC	QUANT	0.0062256	Open Circuit (V)
PSTATMODEL	IQUANT	4	Pstat Model
PSTATSECTION	LABEL	REF600-11020	Pstat Section
PSTATSERIALNO	LABEL	11020	Pstat Serial Number
CTRLMODE	IQUANT	1	Control Mode
IESTAB	IQUANT	0	I/E Stability
CASPEED	IQUANT	1	Control Amp Speed
CONVENTION	IQUANT	1	Current Convention
ICHRANGE	IQUANT	2	Ich Range
ICHRANGEMODE	TOGGLE	F	Ich Auto Range
ICHOFFSETENABLE	TOGGLE	T	Ich Offset Enable
ICHOFFSET	QUANT	0	Ich Offset (V)
ICHFILTER	IQUANT	3	Ich Filter
VCHRANGE	IQUANT	2	Vch Range
VCHRANGEMODE	TOGGLE	F	Vch Auto Range
VCHOFFSETENABLE	TOGGLE	T	Vch Offset Enable
VCHOFFSET	QUANT	0	Vch Offset (V)
VCHFILTER	IQUANT	3	Vch Filter
ACHRANGE	IQUANT	2	Ach Range
ACHOFFSETENABLE	TOGGLE	F	Ach Offset Enable
ACHOFFSET	QUANT	0	Ach Offset (V)
ACHFILTER	IQUANT	3	Ach Filter
IERANGELOWERLIMIT	IQUANT	1	I/E Range Lower Limit
IERANGEMODE	TOGGLE	F	I/E AutoRange
IERANGE	IQUANT	6	I/E Range
POSFEEDENABLE	TOGGLE	F	Positive Feedback IR Comp
POSFEEDRESISTANCE	QUANT	0	Positive Feedback Resistance (ohm)
ACHSELECT	IQUANT	0	Ach Select
CABLEID	IQUANT	14	Cable ID
DCCALDATE	LABEL	8/19/2019	DC Calibration Date
ACCALDATE	LABEL	8/19/2019	AC Calibration Date
THERMOSELECT	IQUANT	1	Thermo Select
FRAMEWORKVERSION	QUANT	6.33	Framework Version
INSTRUMENTVERSION	LABEL	3.50	Instrument Version
ZCURVE	TABLE
	Pt	Time	Freq	Zreal	Zimag	Zsig	Zmod	Zphz	Idc	Vdc	IERange
	#	s	Hz	ohm	ohm	V	ohm	°	A	V	#
	0	1	1000078	2544.35	-2104.98	1	3302.22	-39.60149	-8.640437E-008	0.0088993	8
	1	3	794390.6	2947.759	-2093.909	1	3615.762	-35.38767	6.245415E-006	0.0068431	8
	2	4	630984.4	3363.276	-2004.432	1	3915.274	-30.79393	-1.915343E-006	0.008016	8
	3	6	501234.4	3738.267	-1876.736	1	4182.915	-26.65819	7.709809E-007	0.0079615	8
	4	7	398109.4	4066.9	-1716.183	1	4414.177	-22.87917	-1.312263E-006	0.008152	8
	5	8	316265.6	4325.292	-1531.398	1	4588.391	-19.49684	-1.83364E-006	0.0082523	8
	6	10	251203.1	4522.94	-1320.643	1	4711.803	-16.27715	-3.745108E-006	0.008559	8
	7	11	199546.9	4690.672	-1157.997	1	4831.497	-13.86746	-3.028071E-008	0.0077792	8
	8	13	158578.1	4817.593	-1021.415	1	4924.682	-11.97045	-1.610946E-007	0.0077837	8
	9	14	125953.1	4957.39	-849.7939	1	5029.698	-9.72708	4.369667E-007	0.007546	7
	10	15	100078.1	5000.115	-746.9592	1	5055.601	-8.496491	5.464414E-008	0.007745	7
	11	17	79453.13	5063.628	-679.0172	1	5108.953	-7.637627	1.485434E-008	0.0077515	7
	12	18	63140.62	5117.089	-628.6085	1	5155.555	-7.003408	1.68937E-008	0.0077459	7
	13	19	50203.12	5166.826	-595.8428	1	5201.069	-6.57834	-6.754596E-008	0.0079035	7
	14	21	39890.62	5212.937	-579.4999	1	5245.048	-6.343283	9.258682E-008	0.0077412	7
	15	22	31640.63	5264.314	-580.2192	1	5296.192	-6.289608	-4.890903E-008	0.00788	7
	16	23	25171.88	5312.335	-594.8735	1	5345.538	-6.389345	1.539349E-008	0.0079004	7
	17	25	20015.62	5378.855	-624.0311	1	5414.933	-6.61762	1.163182E-007	0.00765	7
	18	26	15890.62	5416.283	-669.9634	1	5457.561	-7.051345	-3.409294E-008	0.0078229	7
	19	28	12609.37	5469.878	-732.8176	1	5518.749	-7.630667	1.153305E-007	0.0076501	7
	20	29	10078.13	5529.513	-813.3951	1	5589.019	-8.368233	1.216494E-008	0.0079052	7
	21	30	8015.625	5582.545	-921.2026	1	5658.041	-9.370211	1.57154E-008	0.0077448	7
	22	32	6328.125	5663.074	-1046.149	1	5758.892	-10.46635	4.080476E-008	0.00769	7
	23	33	5015.625	5739.314	-1208.816	1	5865.234	-11.89382	-6.701931E-008	0.0080199	7
	24	34	3984.375	5821.441	-1404.101	1	5988.378	-13.56044	1.362452E-008	0.0077414	7
	25	36	3170.956	5907.31	-1648.644	1	6133.052	-15.59364	1.497826E-008	0.0077378	7
	26	37	2527.573	6004.574	-1942.838	1	6311.064	-17.92949	-1.052584E-008	0.0078074	7
	27	38	1976.103	6133.593	-2337.506	1	6563.909	-20.86179	-4.940599E-008	0.0078679	7
	28	40	1577.524	6257.165	-2779.276	1	6846.641	-23.94959	-2.829317E-009	0.0077615	7
	29	41	1265.625	6418.196	-3316.219	1	7224.302	-27.32495	5.947074E-008	0.0077174	7
	30	43	998.264	6608.053	-4016.881	1	7733.155	-31.29444	5.635862E-008	0.007716	7
	31	44	796.875	6829.107	-4824.964	1	8361.638	-35.24232	7.865835E-008	0.0076497	7
	32	45	627.7902	7109.062	-5877.888	1	9224.334	-39.5845	1.597708E-008	0.0077336	7
	33	47	505.5147	7396.157	-7024.09	1	10200.05	-43.522	-2.289577E-009	0.0078709	6
	34	48	397.9953	7792.428	-8576.647	1	11587.96	-47.74286	1.196245E-009	0.0077671	6
	35	49	315.5048	8253.62	-10426.35	1	13297.78	-51.63444	6.622257E-010	0.0077646	6
	36	51	252.4038	8792.013	-12590.25	1	15356.23	-55.07266	1.256141E-009	0.0077635	6
	37	52	198.6229	9510.61	-15437.67	1	18132.11	-58.36421	1.050644E-009	0.0077663	6
	38	53	158.3615	10366.56	-18734.06	1	21410.99	-61.0419	9.843834E-010	0.0077693	6
	39	55	125.558	11480.5	-22871.22	1	25590.91	-63.34506	7.257077E-010	0.0077627	6
	40	56	100.4464	12897.1	-27691	1	30547.13	-65.02622	-1.423525E-010	0.0077598	6
	41	58	79.00281	14851.76	-34079.2	1	37174.81	-66.45237	5.316558E-010	0.0077596	6
	42	59	63.3446	17136.46	-41413.91	1	44819.31	-67.52096	1.994757E-010	0.0077567	6
	43	60	49.86702	20537.89	-49720.89	1	53795.65	-67.55627	-2.847236E-010	0.0077534	6
	44	62	39.72458	25021.26	-60182.3	1	65176.47	-67.42451	5.694855E-010	0.0077574	6
	45	63	31.6723	31001.93	-72007.16	1	78397.39	-66.70621	4.334613E-010	0.0077574	6
	46	65	24.93351	38673.62	-86397.73	1	94658.42	-65.88561	8.347878E-010	0.0077556	6
	47	66	19.86229	48306.21	-101720.3	1	112607.7	-64.59731	6.618812E-010	0.007764	5
	48	67	15.83615	60927.64	-119865.4	1	134461.5	-63.05574	2.102324E-009	0.0077589	5
	49	69	12.40079	76563.23	-139404.8	1	159046	-61.22375	1.516922E-009	0.0077634	5
	50	70	9.93114	92399.27	-159066.9	1	183956.2	-59.84842	-1.758757E-010	0.0077668	5
	51	72	7.944915	112589.9	-180668.7	1	212879.5	-58.0695	4.844199E-010	0.0077607	5
	52	73	6.317385	134391.6	-204211.8	1	244465.8	-56.65112	3.720785E-010	0.0077761	5
	53	75	5.008013	158995.4	-230326	1	279874.2	-55.38245	2.313009E-010	0.0077629	5
	54	78	3.945707	185598.6	-260343.2	1	319727.1	-54.51493	3.761732E-011	0.0077603	5
	55	81	3.158693	212403.9	-292244.3	1	361278.4	-53.99025	-9.40084E-012	0.0077677	5
	56	84	2.504006	242016.9	-331579.9	1	410508.7	-53.87466	2.834596E-010	0.007752	5
	57	87	1.998082	272329.2	-376508.9	1	464674.3	-54.12175	-2.823104E-011	0.0077993	5
	58	90	1.584686	305558.4	-432505.9	1	529553.8	-54.75941	1.981997E-010	0.0077645	5
	59	94	1.266892	344713.9	-497430.8	1	605198.4	-55.27848	3.964415E-011	0.0078047	5
	60	98	0.999041	390054.4	-581337.4	1	700068.3	-56.13995	1.56882E-010	0.0077179	5
