EXPLAIN
TAG	EISPOT
TITLE	LABEL	Potentiostatic EIS	Test &Identifier
DATE	LABEL	10/24/2019	Date
TIME	LABEL	9:49:01	Time
NOTES	NOTES	1	&Notes...
	
PSTAT	PSTAT	REF600-11020	Potentiostat
VDC	POTEN	0.00000E+000	T	DC &Voltage (V)
FREQINIT	QUANT	1.00000E+006	Initial Fre&q. (Hz)
FREQFINAL	QUANT	1.00000E+000	Final Fre&q. (Hz)
PTSPERDEC	QUANT	1.00000E+001	Points/&decade
VAC	QUANT	2.50000E+001	AC &Voltage (mV rms)
AREA	QUANT	1.00000E-002	&Area (cm^2)
CONDIT	TWOPARAM	T	5.00000E+000	0.00000E+000	Conditionin&g	Time(s)	E(V)
DELAY	TWOPARAM	T	5.00000E+000	0.00000E+000	Init. De&lay	Time(s)	Stab.(mV/s)
SPEED	SELECTOR	1	&Optimize for:
ZGUESS	QUANT	1.00000E+005	E&stimated Z (ohms)
OCVCURVE	TABLE	19
	Pt	T	Vf	Vm	Ach	Over
	#	s	V vs. Ref.	V	V	bits
	0	0.258333	6.24559E-003	6.24559E-003	5.27966E-004	...........
	1	0.516667	6.24983E-003	6.46724E-003	5.21933E-004	...........
	2	0.775	6.26415E-003	6.06636E-003	5.30333E-004	...........
	3	1.03333	6.26546E-003	5.65854E-003	5.30866E-004	...........
	4	1.29167	6.18959E-003	5.20706E-003	5.23333E-004	...........
	5	1.55	5.98761E-003	4.92127E-003	5.28033E-004	...........
	6	1.80833	5.67853E-003	4.64447E-003	5.32400E-004	...........
	7	2.06667	5.33008E-003	4.52965E-003	5.31666E-004	...........
	8	2.325	5.01968E-003	4.96214E-003	5.23766E-004	...........
	9	2.58333	4.81162E-003	4.51626E-003	5.26033E-004	...........
	10	2.84167	4.70925E-003	4.33000E-003	5.28600E-004	...........
	11	3.1	4.63734E-003	4.12513E-003	5.28933E-004	...........
	12	3.35833	4.52621E-003	4.15639E-003	5.27200E-004	...........
	13	3.61667	4.38799E-003	4.40393E-003	5.23200E-004	...........
	14	3.875	4.29590E-003	4.78648E-003	5.30700E-004	...........
	15	4.13333	4.30637E-003	4.36811E-003	5.27366E-004	...........
	16	4.39167	4.38891E-003	4.39623E-003	5.25533E-004	...........
	17	4.65	4.45522E-003	4.38972E-003	5.24166E-004	...........
	18	4.90833	4.46244E-003	4.39676E-003	5.27533E-004	...........
EOC	QUANT	0.0044624	Open Circuit (V)
PSTATMODEL	IQUANT	4	Pstat Model
PSTATSECTION	LABEL	REF600-11020	Pstat Section
PSTATSERIALNO	LABEL	11020	Pstat Serial Number
CTRLMODE	IQUANT	1	Control Mode
IESTAB	IQUANT	0	I/E Stability
CASPEED	IQUANT	1	Control Amp Speed
CONVENTION	IQUANT	1	Current Convention
ICHRANGE	IQUANT	2	Ich Range
ICHRANGEMODE	TOGGLE	F	Ich Auto Range
ICHOFFSETENABLE	TOGGLE	T	Ich Offset Enable
ICHOFFSET	QUANT	0	Ich Offset (V)
ICHFILTER	IQUANT	3	Ich Filter
VCHRANGE	IQUANT	2	Vch Range
VCHRANGEMODE	TOGGLE	F	Vch Auto Range
VCHOFFSETENABLE	TOGGLE	T	Vch Offset Enable
VCHOFFSET	QUANT	0	Vch Offset (V)
VCHFILTER	IQUANT	3	Vch Filter
ACHRANGE	IQUANT	2	Ach Range
ACHOFFSETENABLE	TOGGLE	F	Ach Offset Enable
ACHOFFSET	QUANT	0	Ach Offset (V)
ACHFILTER	IQUANT	3	Ach Filter
IERANGELOWERLIMIT	IQUANT	1	I/E Range Lower Limit
IERANGEMODE	TOGGLE	F	I/E AutoRange
IERANGE	IQUANT	4	I/E Range
POSFEEDENABLE	TOGGLE	F	Positive Feedback IR Comp
POSFEEDRESISTANCE	QUANT	0	Positive Feedback Resistance (ohm)
ACHSELECT	IQUANT	0	Ach Select
CABLEID	IQUANT	14	Cable ID
DCCALDATE	LABEL	8/19/2019	DC Calibration Date
ACCALDATE	LABEL	8/19/2019	AC Calibration Date
THERMOSELECT	IQUANT	1	Thermo Select
FRAMEWORKVERSION	QUANT	6.33	Framework Version
INSTRUMENTVERSION	LABEL	3.50	Instrument Version
ZCURVE	TABLE
	Pt	Time	Freq	Zreal	Zimag	Zsig	Zmod	Zphz	Idc	Vdc	IERange
	#	s	Hz	ohm	ohm	V	ohm	°	A	V	#
	0	2	1000078	2295.807	-2168.054	1	3157.719	-43.36068	-1.791444E-006	0.0066183	8
	1	3	794390.6	2726.398	-2209.292	1	3509.162	-39.01901	1.113977E-006	0.0064902	8
	2	5	630984.4	3177.843	-2202.159	1	3866.289	-34.72091	9.225673E-007	0.0060015	8
	3	6	501234.4	3597.388	-2132.166	1	4181.786	-30.65515	-7.162523E-007	0.0063319	8
	4	7	398109.4	3993.59	-1988.798	1	4461.399	-26.47319	-2.070922E-006	0.0066504	8
	5	9	316265.6	4340.612	-1821.755	1	4707.41	-22.76779	3.044972E-006	0.0054772	8
	6	10	251203.1	4617.669	-1651.388	1	4904.075	-19.67826	2.865168E-006	0.0054964	8
	7	12	199546.9	4858.632	-1425.642	1	5063.473	-16.35298	2.756226E-006	0.0054759	8
	8	13	158578.1	5013.276	-1239.309	1	5164.187	-13.88545	-5.108114E-007	0.0062905	8
	9	14	125953.1	5185.375	-1045.393	1	5289.703	-11.39829	3.287445E-007	0.0054296	7
	10	16	100078.1	5270.913	-922.5108	1	5351.032	-9.92731	-2.316176E-008	0.0060239	7
	11	17	79453.13	5354.816	-824.5131	1	5417.922	-8.753429	-2.532612E-008	0.0060218	7
	12	18	63140.62	5424.146	-748.7129	1	5475.576	-7.859064	1.513474E-009	0.0059809	7
	13	20	50203.12	5484.948	-693.9893	1	5528.677	-7.211097	-4.746976E-008	0.006171	7
	14	21	39890.62	5541.036	-659.057	1	5580.093	-6.782958	8.180012E-009	0.0060967	7
	15	22	31640.63	5591.997	-640.21	1	5628.525	-6.531177	-2.485105E-008	0.0060101	7
	16	24	25171.88	5643.699	-641.3447	1	5680.023	-6.483227	-3.805424E-010	0.0059699	7
	17	25	20015.62	5694.028	-651.1856	1	5731.143	-6.524167	-8.367573E-009	0.0060358	7
	18	26	15890.62	5751.438	-693.1503	1	5793.055	-6.872015	6.554251E-008	0.0058654	7
	19	28	12609.37	5805.708	-744.8373	1	5853.292	-7.310767	1.033242E-007	0.0058664	7
	20	29	10078.13	5862.607	-814.8261	1	5918.961	-7.912677	-2.500265E-008	0.0060832	7
	21	30	8015.625	5920.647	-911.3589	1	5990.378	-8.750796	-7.424166E-009	0.0060281	7
	22	32	6328.125	5982.546	-1034.254	1	6071.288	-9.80827	1.844136E-009	0.0059648	7
	23	33	5015.625	6052.224	-1192.37	1	6168.563	-11.14531	5.828057E-008	0.0059134	7
	24	34	3984.375	6128.67	-1383.369	1	6282.858	-12.71969	9.955726E-010	0.0060351	7
	25	36	3170.956	6210.776	-1628.78	1	6420.799	-14.69493	-5.61719E-008	0.0060739	7
	26	37	2527.573	6304.741	-1922.968	1	6591.477	-16.96189	-8.809044E-009	0.0060168	7
	27	38	1976.103	6424.445	-2315.869	1	6829.11	-19.8231	4.028301E-010	0.0060341	7
	28	40	1577.524	6634.022	-2757.363	1	7184.24	-22.56971	6.796798E-008	0.0058674	7
	29	41	1265.625	6679.594	-3293.593	1	7447.464	-26.24711	-3.194737E-008	0.0060886	7
	30	42	998.264	6852.484	-3989.774	1	7929.366	-30.20957	3.990952E-008	0.0059546	7
	31	44	796.875	7040.997	-4807.982	1	8525.98	-34.32742	-4.830584E-008	0.0060663	7
	32	45	627.7902	7274.643	-5867.263	1	9345.866	-38.88743	6.819116E-008	0.0058673	7
	33	46	505.5147	7520.355	-7048.457	1	10307.11	-43.14478	2.351174E-010	0.0060753	6
	34	48	397.9953	7849.581	-8656.242	1	11685.31	-47.79789	1.011844E-009	0.0059731	6
	35	49	315.5048	8232.642	-10586.4	1	13410.75	-52.12915	7.213069E-010	0.0059742	6
	36	50	252.4038	8684.232	-12869.19	1	15525.21	-55.98821	2.177274E-010	0.0059696	6
	37	52	198.6229	9297.075	-15891.02	1	18410.87	-59.67014	9.799281E-010	0.0059717	6
	38	53	158.3615	10029.5	-19406.38	1	21844.87	-62.66941	1.274154E-009	0.0059684	6
	39	54	125.558	11008.43	-23835.48	1	26254.82	-65.21013	8.429013E-010	0.0059685	6
	40	56	100.4464	12256.38	-29055.79	1	31535.02	-67.12889	9.280968E-010	0.005965	6
	41	57	79.00281	14002.68	-35925.05	1	38557.55	-68.70542	1.613043E-009	0.0059684	6
	42	58	63.3446	15572.68	-43255.2	1	45973.04	-70.20017	9.648894E-010	0.0059631	6
	43	60	49.86702	19442.24	-53505	1	56927.89	-70.03026	3.212126E-010	0.0059616	6
	44	61	39.72458	22918.95	-65275.12	1	69181.79	-70.65315	7.738105E-010	0.0059677	6
	45	63	31.6723	27808.8	-79026.38	1	83776.48	-70.6134	1.191013E-009	0.0059682	6
	46	64	24.93351	35411.87	-96124.7	1	102440	-69.77645	7.409637E-010	0.005971	6
	47	65	19.86229	44698.68	-114979.4	1	123362.2	-68.75623	4.338188E-011	0.0059699	5
	48	67	15.83615	58624.64	-136212.2	1	148292.3	-66.71335	-5.879351E-010	0.0059712	5
	49	68	12.40079	73339.52	-163947.9	1	179604	-65.8994	5.098272E-010	0.005978	5
	50	69	9.93114	92999.89	-190550.4	1	212034	-63.98487	9.127328E-010	0.0059762	5
	51	71	7.944915	117995.2	-218981.4	1	248748.3	-61.68258	9.462814E-010	0.0059752	5
	52	73	6.317385	147250.8	-251040.9	1	291040.1	-59.60579	-1.338738E-011	0.0059792	5
	53	75	5.008013	181128.6	-284030.1	1	336868.9	-57.47397	5.060895E-010	0.0059792	5
	54	77	3.945707	220198	-319686	1	388183.4	-55.44114	-5.012952E-011	0.0059651	5
	55	80	3.158693	259912.7	-354800.1	1	439815.5	-53.77496	2.058546E-010	0.0059674	5
	56	83	2.504006	302784.7	-394182.5	1	497049.7	-52.47094	9.362084E-011	0.0059772	5
	57	86	1.998082	344832.3	-438608.7	1	557930.9	-51.82572	4.122329E-010	0.0059596	5
	58	89	1.584686	391538.5	-488502.3	1	626048.6	-51.28755	1.361775E-010	0.0059129	5
	59	93	1.266892	436166.8	-550044.3	1	701990.1	-51.58675	3.549767E-010	0.0059742	5
	60	97	0.999041	489687.2	-627675.4	1	796096.8	-52.04007	-4.043863E-011	0.0059315	5
