EXPLAIN
TAG	EISPOT
TITLE	LABEL	Potentiostatic EIS	Test &Identifier
DATE	LABEL	10/24/2019	Date
TIME	LABEL	10:37:17	Time
NOTES	NOTES	1	&Notes...
	
PSTAT	PSTAT	REF600-11020	Potentiostat
VDC	POTEN	0.00000E+000	T	DC &Voltage (V)
FREQINIT	QUANT	1.00000E+006	Initial Fre&q. (Hz)
FREQFINAL	QUANT	1.00000E+000	Final Fre&q. (Hz)
PTSPERDEC	QUANT	1.00000E+001	Points/&decade
VAC	QUANT	2.50000E+001	AC &Voltage (mV rms)
AREA	QUANT	1.00000E-002	&Area (cm^2)
CONDIT	TWOPARAM	T	5.00000E+000	0.00000E+000	Conditionin&g	Time(s)	E(V)
DELAY	TWOPARAM	T	5.00000E+000	0.00000E+000	Init. De&lay	Time(s)	Stab.(mV/s)
SPEED	SELECTOR	1	&Optimize for:
ZGUESS	QUANT	1.00000E+005	E&stimated Z (ohms)
OCVCURVE	TABLE	19
	Pt	T	Vf	Vm	Ach	Over
	#	s	V vs. Ref.	V	V	bits
	0	0.258333	5.50321E-003	5.50321E-003	5.44799E-004	...........
	1	0.516667	5.50035E-003	5.35377E-003	5.43066E-004	...........
	2	0.775	5.48366E-003	5.25566E-003	5.45733E-004	...........
	3	1.03333	5.43917E-003	5.16116E-003	5.50933E-004	...........
	4	1.29167	5.36368E-003	5.00572E-003	5.51699E-004	...........
	5	1.55	5.26524E-003	4.92627E-003	5.46833E-004	...........
	6	1.80833	5.15507E-003	4.84190E-003	5.54499E-004	...........
	7	2.06667	5.04514E-003	4.77705E-003	5.47366E-004	...........
	8	2.325	4.94497E-003	4.69295E-003	5.44966E-004	...........
	9	2.58333	4.85793E-003	4.68111E-003	5.51033E-004	...........
	10	2.84167	4.77816E-003	4.30154E-003	5.52399E-004	...........
	11	3.1	4.68706E-003	4.32845E-003	5.54766E-004	...........
	12	3.35833	4.57218E-003	4.26718E-003	5.47066E-004	...........
	13	3.61667	4.45126E-003	4.24571E-003	5.46233E-004	...........
	14	3.875	4.35368E-003	4.23580E-003	5.46099E-004	...........
	15	4.13333	4.28981E-003	4.19485E-003	5.45966E-004	...........
	16	4.39167	4.25149E-003	4.19853E-003	5.42366E-004	...........
	17	4.65	4.22808E-003	4.23928E-003	5.47166E-004	...........
	18	4.90833	4.21377E-003	4.10965E-003	5.46433E-004	...........
EOC	QUANT	0.0042138	Open Circuit (V)
PSTATMODEL	IQUANT	4	Pstat Model
PSTATSECTION	LABEL	REF600-11020	Pstat Section
PSTATSERIALNO	LABEL	11020	Pstat Serial Number
CTRLMODE	IQUANT	1	Control Mode
IESTAB	IQUANT	0	I/E Stability
CASPEED	IQUANT	1	Control Amp Speed
CONVENTION	IQUANT	1	Current Convention
ICHRANGE	IQUANT	2	Ich Range
ICHRANGEMODE	TOGGLE	F	Ich Auto Range
ICHOFFSETENABLE	TOGGLE	T	Ich Offset Enable
ICHOFFSET	QUANT	0	Ich Offset (V)
ICHFILTER	IQUANT	3	Ich Filter
VCHRANGE	IQUANT	2	Vch Range
VCHRANGEMODE	TOGGLE	F	Vch Auto Range
VCHOFFSETENABLE	TOGGLE	T	Vch Offset Enable
VCHOFFSET	QUANT	0	Vch Offset (V)
VCHFILTER	IQUANT	3	Vch Filter
ACHRANGE	IQUANT	2	Ach Range
ACHOFFSETENABLE	TOGGLE	F	Ach Offset Enable
ACHOFFSET	QUANT	0	Ach Offset (V)
ACHFILTER	IQUANT	3	Ach Filter
IERANGELOWERLIMIT	IQUANT	1	I/E Range Lower Limit
IERANGEMODE	TOGGLE	F	I/E AutoRange
IERANGE	IQUANT	4	I/E Range
POSFEEDENABLE	TOGGLE	F	Positive Feedback IR Comp
POSFEEDRESISTANCE	QUANT	0	Positive Feedback Resistance (ohm)
ACHSELECT	IQUANT	0	Ach Select
CABLEID	IQUANT	14	Cable ID
DCCALDATE	LABEL	8/19/2019	DC Calibration Date
ACCALDATE	LABEL	8/19/2019	AC Calibration Date
THERMOSELECT	IQUANT	1	Thermo Select
FRAMEWORKVERSION	QUANT	6.33	Framework Version
INSTRUMENTVERSION	LABEL	3.50	Instrument Version
ZCURVE	TABLE
	Pt	Time	Freq	Zreal	Zimag	Zsig	Zmod	Zphz	Idc	Vdc	IERange
	#	s	Hz	ohm	ohm	V	ohm	°	A	V	#
	0	1	1000078	2427.563	-2045.508	1	3174.455	-40.11809	7.264753E-006	0.0055015	8
	1	3	794390.6	2836.307	-2049.851	1	3499.504	-35.85632	-6.406653E-006	0.0069365	8
	2	4	630984.4	3245.447	-1977.563	1	3800.484	-31.3554	2.402273E-006	0.0057828	8
	3	6	501234.4	3633.279	-1831.552	1	4068.82	-26.75288	-7.917236E-007	0.0060582	8
	4	7	398109.4	3948.246	-1680.522	1	4291.014	-23.05643	-1.271181E-007	0.0058165	8
	5	8	316265.6	4221.535	-1492.616	1	4477.64	-19.47216	3.157925E-007	0.0056995	8
	6	10	251203.1	4427.708	-1295.228	1	4613.265	-16.30566	-3.585817E-006	0.0066432	8
	7	11	199546.9	4563.63	-1120.665	1	4699.214	-13.7968	-1.839647E-007	0.0059329	8
	8	13	158578.1	4697.013	-942.6029	1	4790.661	-11.34747	8.427109E-007	0.0055843	8
	9	14	125953.1	4800.074	-789.6855	1	4864.598	-9.342346	-6.987101E-007	0.0072331	7
	10	16	100078.1	4861.373	-682.8965	1	4909.104	-7.996244	1.016934E-008	0.005719	7
	11	17	79453.13	4917.689	-606.9226	1	4955	-7.035651	-5.910949E-009	0.0057957	7
	12	18	63140.62	4962.969	-547.6246	1	4993.09	-6.296666	-3.88764E-008	0.0058534	7
	13	20	50203.12	5005.097	-504.7268	1	5030.481	-5.758387	-3.659017E-008	0.0058539	7
	14	21	39890.62	5042.775	-477.3932	1	5065.322	-5.408003	5.46457E-008	0.0056792	7
	15	22	31640.63	5078.606	-460.8145	1	5099.469	-5.184617	-3.19614E-008	0.0057911	7
	16	24	25171.88	5112.557	-458.3242	1	5133.059	-5.122688	-3.069249E-008	0.0057868	7
	17	25	20015.62	5173.825	-474.9012	1	5195.575	-5.244437	-3.855605E-008	0.0058526	7
	18	26	15890.62	5184.254	-490.8332	1	5207.438	-5.40851	-2.923067E-009	0.0057976	7
	19	28	12609.37	5216.5	-525.5176	1	5242.904	-5.752649	-1.462781E-008	0.0057467	7
	20	29	10078.13	5253.929	-578.7196	1	5285.706	-6.285783	-3.544314E-008	0.0057876	7
	21	30	8015.625	5273.759	-657.476	1	5314.585	-7.10636	-8.997326E-009	0.0058848	7
	22	32	6328.125	5330.238	-745.8101	1	5382.162	-7.965149	-5.22025E-009	0.0057854	7
	23	33	5015.625	5373.966	-864.8568	1	5443.114	-9.142478	-6.184359E-008	0.0058721	7
	24	34	3984.375	5427.904	-1048.757	1	5528.293	-10.93569	-8.726989E-009	0.0058843	7
	25	36	3170.956	5476.07	-1198.497	1	5605.688	-12.34515	6.880545E-008	0.0056244	7
	26	37	2527.573	5535.317	-1425.232	1	5715.857	-14.43888	-1.680309E-008	0.005743	7
	27	39	1976.103	5609.311	-1732.526	1	5870.776	-17.16415	-3.511966E-008	0.0057808	7
	28	40	1577.524	5685.363	-2090.025	1	6057.355	-20.18419	-9.670877E-009	0.0058819	7
	29	41	1265.625	5775.91	-2496.925	1	6292.517	-23.37882	-3.535828E-008	0.0057825	7
	30	43	998.264	5881.786	-3051.427	1	6626.206	-27.41995	1.141047E-007	0.0055962	7
	31	44	796.875	6004.456	-3697.887	1	7051.798	-31.62714	-3.544643E-008	0.0057844	7
	32	45	627.7902	6155.161	-4542.925	1	7650.109	-36.42983	3.272364E-008	0.0056535	7
	33	47	505.5147	6317.425	-5499.017	1	8375.503	-41.03802	-3.919615E-008	0.0058472	7
	34	48	397.9953	6535.228	-6786.643	1	9421.662	-46.08118	4.427006E-009	0.0057918	7
	35	49	315.5048	6800.305	-8346.152	1	10765.8	-50.82743	8.944112E-010	0.005728	6
	36	51	252.4038	7113.769	-10194.32	1	12431.01	-55.09202	1.682732E-009	0.0057224	6
	37	52	198.6229	7542.131	-12650.87	1	14728.49	-59.19767	1.092261E-009	0.0057207	6
	38	53	158.3615	8066.479	-15520.21	1	17491.29	-62.53729	1.617068E-009	0.0057176	6
	39	55	125.558	8764.051	-19133.24	1	21044.94	-65.38968	7.283285E-010	0.005719	6
	40	56	100.4464	9626.02	-23405.54	1	25307.7	-67.64407	4.557479E-012	0.005719	6
	41	57	79.00281	10913.86	-28960.37	1	30948.59	-69.35084	1.385931E-009	0.0057175	6
	42	59	63.3446	12754.56	-35138.8	1	37382	-70.0503	3.332454E-010	0.0057178	6
	43	60	49.86702	14703.09	-43932.35	1	46327.45	-71.49586	1.622099E-010	0.0057132	6
	44	62	39.72458	17549.06	-53258.72	1	56075.49	-71.76265	9.582081E-010	0.0057169	6
	45	63	31.6723	21573.81	-64597.76	1	68105.06	-71.53215	7.943749E-010	0.0057175	6
	46	64	24.93351	26817.79	-79034.08	1	83460.05	-71.25694	4.82932E-010	0.0057227	6
	47	66	19.86229	33845.82	-95114	1	100956.5	-70.41216	3.657287E-010	0.0057189	6
	48	67	15.83615	42581.97	-114132.3	1	121817.1	-69.53981	7.162185E-010	0.0057221	5
	49	68	12.40079	54855.46	-136608.9	1	147211.1	-68.12202	8.78357E-010	0.0057225	5
	50	70	9.93114	69378	-161023.8	1	175333.8	-66.69093	6.868132E-010	0.0057212	5
	51	71	7.944915	86643.55	-188236	1	207219.5	-65.28376	-1.582691E-011	0.0057212	5
	52	73	6.317385	107664.1	-218410.8	1	243505.3	-63.75933	3.144871E-010	0.0057146	5
	53	75	5.008013	132924.9	-253085.7	1	285869.6	-62.29078	1.112074E-010	0.0057319	5
	54	78	3.945707	162582.1	-292892.2	1	334990.7	-60.96569	4.506137E-011	0.0057244	5
	55	80	3.158693	193911.4	-333272.2	1	385580.1	-59.8074	1.38694E-010	0.0057218	5
	56	84	2.504006	231371.4	-383060.6	1	447513.3	-58.86771	-3.013976E-011	0.0057299	5
	57	86	1.998082	271239.8	-435896.3	1	513397.1	-58.10775	1.856225E-010	0.0056829	5
	58	90	1.584686	316355.6	-499978.6	1	591658.2	-57.6769	3.594041E-011	0.0057291	5
	59	93	1.266892	367185.1	-571304.4	1	679127.1	-57.2706	1.196366E-010	0.0056854	5
	60	98	0.999041	427020.6	-657918.9	1	784349.4	-57.01452	1.587976E-010	0.0057708	5
