EXPLAIN
TAG	EISPOT
TITLE	LABEL	Potentiostatic EIS	Test &Identifier
DATE	LABEL	10/16/2019	Date
TIME	LABEL	9:49:00	Time
NOTES	NOTES	1	&Notes...
	
PSTAT	PSTAT	REF600-11020	Potentiostat
VDC	POTEN	0.00000E+000	T	DC &Voltage (V)
FREQINIT	QUANT	1.00000E+006	Initial Fre&q. (Hz)
FREQFINAL	QUANT	1.00000E+000	Final Fre&q. (Hz)
PTSPERDEC	QUANT	1.00000E+001	Points/&decade
VAC	QUANT	2.50000E+001	AC &Voltage (mV rms)
AREA	QUANT	1.00000E-002	&Area (cm^2)
CONDIT	TWOPARAM	T	5.00000E+000	0.00000E+000	Conditionin&g	Time(s)	E(V)
DELAY	TWOPARAM	T	5.00000E+000	0.00000E+000	Init. De&lay	Time(s)	Stab.(mV/s)
SPEED	SELECTOR	0	&Optimize for:
ZGUESS	QUANT	1.00000E+005	E&stimated Z (ohms)
OCVCURVE	TABLE	19
	Pt	T	Vf	Vm	Ach	Over
	#	s	V vs. Ref.	V	V	bits
	0	0.258333	6.19381E-003	6.19381E-003	5.34166E-004	...........
	1	0.516667	6.19041E-003	6.01548E-003	5.37033E-004	...........
	2	0.775	6.17163E-003	5.95857E-003	5.26300E-004	...........
	3	1.03333	6.12544E-003	5.89426E-003	5.25500E-004	...........
	4	1.29167	6.05463E-003	5.77172E-003	5.31700E-004	...........
	5	1.55	5.97249E-003	5.76543E-003	5.31966E-004	...........
	6	1.80833	5.89217E-003	5.74684E-003	5.35766E-004	...........
	7	2.06667	5.82553E-003	5.73416E-003	5.36033E-004	...........
	8	2.325	5.77978E-003	5.74161E-003	5.34300E-004	...........
	9	2.58333	5.75583E-003	5.84301E-003	5.35266E-004	...........
	10	2.84167	5.75387E-003	5.81493E-003	5.32966E-004	...........
	11	3.1	5.77118E-003	5.85883E-003	5.33066E-004	...........
	12	3.35833	5.79979E-003	5.95816E-003	5.31233E-004	...........
	13	3.61667	5.83400E-003	5.89615E-003	5.29966E-004	...........
	14	3.875	5.86880E-003	5.90237E-003	5.31933E-004	...........
	15	4.13333	5.89458E-003	5.90978E-003	5.30499E-004	...........
	16	4.39167	5.90630E-003	5.90211E-003	5.34233E-004	...........
	17	4.65	5.90843E-003	5.90361E-003	5.36499E-004	...........
	18	4.90833	5.90691E-003	5.89651E-003	5.39066E-004	...........
EOC	QUANT	0.0059069	Open Circuit (V)
PSTATMODEL	IQUANT	4	Pstat Model
PSTATSECTION	LABEL	REF600-11020	Pstat Section
PSTATSERIALNO	LABEL	11020	Pstat Serial Number
CTRLMODE	IQUANT	1	Control Mode
IESTAB	IQUANT	0	I/E Stability
CASPEED	IQUANT	1	Control Amp Speed
CONVENTION	IQUANT	1	Current Convention
ICHRANGE	IQUANT	2	Ich Range
ICHRANGEMODE	TOGGLE	F	Ich Auto Range
ICHOFFSETENABLE	TOGGLE	T	Ich Offset Enable
ICHOFFSET	QUANT	0	Ich Offset (V)
ICHFILTER	IQUANT	3	Ich Filter
VCHRANGE	IQUANT	2	Vch Range
VCHRANGEMODE	TOGGLE	F	Vch Auto Range
VCHOFFSETENABLE	TOGGLE	T	Vch Offset Enable
VCHOFFSET	QUANT	0	Vch Offset (V)
VCHFILTER	IQUANT	3	Vch Filter
ACHRANGE	IQUANT	2	Ach Range
ACHOFFSETENABLE	TOGGLE	F	Ach Offset Enable
ACHOFFSET	QUANT	0	Ach Offset (V)
ACHFILTER	IQUANT	3	Ach Filter
IERANGELOWERLIMIT	IQUANT	1	I/E Range Lower Limit
IERANGEMODE	TOGGLE	F	I/E AutoRange
IERANGE	IQUANT	5	I/E Range
POSFEEDENABLE	TOGGLE	F	Positive Feedback IR Comp
POSFEEDRESISTANCE	QUANT	0	Positive Feedback Resistance (ohm)
ACHSELECT	IQUANT	0	Ach Select
CABLEID	IQUANT	14	Cable ID
DCCALDATE	LABEL	8/19/2019	DC Calibration Date
ACCALDATE	LABEL	8/19/2019	AC Calibration Date
THERMOSELECT	IQUANT	1	Thermo Select
FRAMEWORKVERSION	QUANT	6.33	Framework Version
INSTRUMENTVERSION	LABEL	3.50	Instrument Version
ZCURVE	TABLE
	Pt	Time	Freq	Zreal	Zimag	Zsig	Zmod	Zphz	Idc	Vdc	IERange
	#	s	Hz	ohm	ohm	V	ohm	°	A	V	#
	0	1	1000078	2428.848	-1739.428	1	2987.459	-35.60847	1.306413E-006	0.0082436	8
	1	2	794390.6	2774.041	-1692.336	1	3249.508	-31.38577	-2.026959E-006	0.0082325	8
	2	2	630984.4	3096.037	-1581.826	1	3476.726	-27.06338	2.403234E-006	0.0073579	8
	3	2	501234.4	3383.702	-1447.88	1	3680.461	-23.166	-1.733978E-006	0.0079985	8
	4	3	398109.4	3604.469	-1298.577	1	3831.253	-19.81249	-1.100309E-006	0.0079152	8
	5	3	316265.6	3798.52	-1144.093	1	3967.077	-16.76201	1.361897E-006	0.0073762	8
	6	3	251203.1	3933.019	-981.476	1	4053.632	-14.01186	1.516017E-006	0.0072558	8
	7	4	199546.9	4047.691	-855.6822	1	4137.148	-11.93659	1.20534E-006	0.0073707	8
	8	4	158578.1	4118.45	-746.2919	1	4185.521	-10.27094	2.442365E-007	0.0076181	8
	9	4	125953.1	4212.391	-602.6863	1	4255.287	-8.142314	1.050666E-007	0.0074502	7
	10	5	100078.1	4253.349	-522.301	1	4285.297	-7.000736	-1.858612E-008	0.0076159	7
	11	5	79453.13	4293.656	-477.9434	1	4320.175	-6.351665	-5.566149E-008	0.0076674	7
	12	5	63140.62	4329.129	-447.2757	1	4352.173	-5.898739	-3.724491E-008	0.007661	7
	13	5	50203.12	4363.764	-427.502	1	4384.654	-5.595204	6.540814E-008	0.0074346	7
	14	6	39890.62	4395.323	-419.5865	1	4415.305	-5.453047	7.863336E-008	0.0075057	7
	15	6	31640.63	4428.444	-424.3461	1	4448.729	-5.473533	-6.965795E-009	0.0075698	7
	16	6	25171.88	4462.878	-439.6541	1	4484.482	-5.626257	-1.937689E-008	0.0076092	7
	17	7	20015.62	4492.642	-463.07	1	4516.444	-5.884865	-3.785753E-008	0.0076514	7
	18	7	15890.62	4536.434	-505.8236	1	4564.547	-6.362341	6.298483E-009	0.0074997	7
	19	7	12609.37	4576.452	-562.668	1	4610.912	-7.009255	-4.567733E-008	0.007617	7
	20	8	10078.13	4614.971	-630.4918	1	4657.841	-7.779519	-1.747662E-008	0.0076006	7
	21	8	8015.625	4688.085	-741.9536	1	4746.435	-8.99325	-2.701854E-008	0.0075577	7
	22	8	6328.125	4714.18	-827.2104	1	4786.207	-9.95253	7.203321E-009	0.0074973	7
	23	9	5015.625	4768.874	-964.222	1	4865.376	-11.43057	-1.473873E-008	0.0075335	7
	24	9	3984.375	4815.176	-1134.188	1	4946.949	-13.2541	1.042875E-008	0.0076361	7
	25	9	3170.956	4896.688	-1337.193	1	5075.987	-15.27399	-3.762466E-008	0.0076497	7
	26	10	2527.573	4970.803	-1586.11	1	5217.723	-17.69712	-4.690563E-008	0.0076127	7
	27	10	1976.103	5060.844	-1921.488	1	5413.341	-20.79064	3.760748E-008	0.0075092	7
	28	10	1577.524	5196.482	-2298.281	1	5682.036	-23.85868	-5.538804E-008	0.0076515	7
	29	11	1265.625	5272.987	-2746.718	1	5945.49	-27.51517	-4.51257E-008	0.0076087	7
	30	11	998.264	5410.483	-3342.351	1	6359.61	-31.70589	3.664796E-008	0.0075055	7
	31	11	796.875	5570.215	-4026.252	1	6872.991	-35.86008	-3.551316E-008	0.007639	7
	32	11	627.7902	5760.009	-4924.106	1	7577.897	-40.52641	-1.427045E-008	0.0075257	7
	33	12	505.5147	5960.338	-5915.159	1	8397.306	-44.78202	5.239443E-008	0.0074651	7
	34	12	397.9953	6228.123	-7261.988	1	9566.92	-49.38251	1.632875E-009	0.0075739	7
	35	12	315.5048	6536.762	-8879.057	1	11025.74	-53.6395	1.21663E-009	0.0075144	6
	36	13	252.4038	6888.382	-10793.25	1	12804.06	-57.45348	2.647745E-010	0.0075097	6
	37	13	198.6229	7345.134	-13333.54	1	15222.82	-61.15067	6.371149E-010	0.0075112	6
	38	13	158.3615	7887.471	-16300.47	1	18108.5	-64.1786	2.822933E-010	0.0075065	6
	39	14	125.558	8588.95	-20059.89	1	21821.3	-66.82107	4.76736E-010	0.0075069	6
	40	14	100.4464	9423.53	-24526.43	1	26274.49	-68.98226	9.496444E-011	0.0075061	6
	41	14	79.00281	10584.66	-30365.23	1	32157.15	-70.78255	-3.387696E-010	0.007505	6
	42	15	63.3446	12515.92	-36913.23	1	38977.37	-71.27009	4.970157E-010	0.0075047	6
	43	15	49.86702	14571.89	-45796.68	1	48059.08	-72.34962	1.065839E-009	0.0075015	6
	44	15	39.72458	16967.64	-55922.2	1	58439.66	-73.12141	2.417077E-010	0.0075058	6
	45	16	31.6723	20384.8	-67962.09	1	70953.41	-73.30372	5.231358E-010	0.0075016	6
	46	16	24.93351	25342.09	-83784.33	1	87533.05	-73.1711	4.740551E-010	0.0074999	6
	47	16	19.86229	31750.65	-101643.2	1	106486.8	-72.65257	1.968264E-010	0.0075091	5
	48	17	15.83615	38847.59	-122411.3	1	128427.7	-72.39301	-4.165978E-010	0.0075047	5
	49	17	12.40079	50886.47	-149893.1	1	158295.2	-71.24842	2.163782E-010	0.0075061	5
	50	17	9.93114	66565.9	-178160.9	1	190190.2	-69.5129	4.461845E-010	0.0075085	5
	51	18	7.944915	84790.3	-210631.2	1	227057	-68.07259	4.295016E-010	0.0075042	5
	52	19	6.317385	108160.8	-248446	1	270968.9	-66.47414	6.24381E-010	0.0074954	5
	53	19	5.008013	138301.9	-291328.4	1	322489.8	-64.60498	2.023985E-010	0.0075051	5
	54	20	3.945707	177723.9	-339050.1	1	382806.4	-62.33729	-3.882254E-011	0.0075084	5
	55	22	3.158693	219191.6	-388197.2	1	445804.9	-60.5492	-1.976432E-010	0.0074949	5
	56	23	2.504006	270279.2	-441493.5	1	517655.6	-58.52533	4.835257E-011	0.0074976	5
	57	25	1.998082	325347.8	-496338.2	1	593466.8	-56.75531	2.038115E-010	0.0075258	5
	58	26	1.584686	388147.7	-555291.6	1	677500.9	-55.04653	-6.676287E-011	0.0074775	5
	59	28	1.266892	454433.4	-619027.8	1	767922.6	-53.7173	-8.41645E-011	0.0074646	5
	60	31	0.999041	527215.8	-695717.3	1	872914.1	-52.84509	-1.27555E-010	0.0074678	5
