EXPLAIN
TAG	EISPOT
TITLE	LABEL	Potentiostatic EIS	Test &Identifier
DATE	LABEL	11/22/2019	Date
TIME	LABEL	10:18:20	Time
NOTES	NOTES	4	&Notes...
	
	
	
	
PSTAT	PSTAT	REF600-11020	Potentiostat
VDC	POTEN	0.00000E+000	T	DC &Voltage (V)
FREQINIT	QUANT	1.00000E+006	Initial Fre&q. (Hz)
FREQFINAL	QUANT	1.00000E+000	Final Fre&q. (Hz)
PTSPERDEC	QUANT	1.00000E+001	Points/&decade
VAC	QUANT	2.50000E+001	AC &Voltage (mV rms)
AREA	QUANT	1.00000E-002	&Area (cm^2)
CONDIT	TWOPARAM	T	5.00000E+000	0.00000E+000	Conditionin&g	Time(s)	E(V)
DELAY	TWOPARAM	T	5.00000E+000	0.00000E+000	Init. De&lay	Time(s)	Stab.(mV/s)
SPEED	SELECTOR	0	&Optimize for:
ZGUESS	QUANT	1.00000E+005	E&stimated Z (ohms)
OCVCURVE	TABLE	19
	Pt	T	Vf	Vm	Ach	Over
	#	s	V vs. Ref.	V	V	bits
	0	0.258333	3.72872E-003	3.72872E-003	5.60666E-004	...........
	1	0.516667	3.74392E-003	4.52447E-003	5.62666E-004	...........
	2	0.775	4.15478E-003	2.18991E-002	5.64632E-004	...........
	3	1.03333	6.07798E-003	2.31666E-002	5.61366E-004	...........
	4	1.29167	1.01482E-002	1.75792E-002	5.62266E-004	...........
	5	1.55	1.48326E-002	1.51520E-002	5.54833E-004	...........
	6	1.80833	1.76606E-002	1.34371E-002	5.54833E-004	...........
	7	2.06667	1.78153E-002	1.21841E-002	5.52999E-004	...........
	8	2.325	1.62982E-002	1.16390E-002	5.60532E-004	...........
	9	2.58333	1.44119E-002	1.10140E-002	5.57899E-004	...........
	10	2.84167	1.28697E-002	1.04632E-002	5.62066E-004	...........
	11	3.1	1.18032E-002	1.00403E-002	5.57532E-004	...........
	12	3.35833	1.10776E-002	9.68511E-003	5.53999E-004	...........
	13	3.61667	1.05411E-002	9.33999E-003	5.61266E-004	...........
	14	3.875	1.01029E-002	8.95359E-003	5.58899E-004	...........
	15	4.13333	9.71702E-003	8.71489E-003	5.64499E-004	...........
	16	4.39167	9.36336E-003	8.45427E-003	5.61499E-004	...........
	17	4.65	9.04009E-003	8.22327E-003	5.64066E-004	...........
	18	4.90833	8.74957E-003	8.00242E-003	5.60266E-004	...........
EOC	QUANT	0.0087496	Open Circuit (V)
PSTATMODEL	IQUANT	4	Pstat Model
PSTATSECTION	LABEL	REF600-11020	Pstat Section
PSTATSERIALNO	LABEL	11020	Pstat Serial Number
CTRLMODE	IQUANT	1	Control Mode
IESTAB	IQUANT	0	I/E Stability
CASPEED	IQUANT	1	Control Amp Speed
CONVENTION	IQUANT	1	Current Convention
ICHRANGE	IQUANT	2	Ich Range
ICHRANGEMODE	TOGGLE	F	Ich Auto Range
ICHOFFSETENABLE	TOGGLE	T	Ich Offset Enable
ICHOFFSET	QUANT	0	Ich Offset (V)
ICHFILTER	IQUANT	3	Ich Filter
VCHRANGE	IQUANT	2	Vch Range
VCHRANGEMODE	TOGGLE	F	Vch Auto Range
VCHOFFSETENABLE	TOGGLE	T	Vch Offset Enable
VCHOFFSET	QUANT	0	Vch Offset (V)
VCHFILTER	IQUANT	3	Vch Filter
ACHRANGE	IQUANT	2	Ach Range
ACHOFFSETENABLE	TOGGLE	F	Ach Offset Enable
ACHOFFSET	QUANT	0	Ach Offset (V)
ACHFILTER	IQUANT	3	Ach Filter
IERANGELOWERLIMIT	IQUANT	1	I/E Range Lower Limit
IERANGEMODE	TOGGLE	F	I/E AutoRange
IERANGE	IQUANT	5	I/E Range
POSFEEDENABLE	TOGGLE	F	Positive Feedback IR Comp
POSFEEDRESISTANCE	QUANT	0	Positive Feedback Resistance (ohm)
ACHSELECT	IQUANT	0	Ach Select
CABLEID	IQUANT	14	Cable ID
DCCALDATE	LABEL	8/19/2019	DC Calibration Date
ACCALDATE	LABEL	8/19/2019	AC Calibration Date
THERMOSELECT	IQUANT	1	Thermo Select
FRAMEWORKVERSION	QUANT	6.33	Framework Version
INSTRUMENTVERSION	LABEL	3.50	Instrument Version
ZCURVE	TABLE
	Pt	Time	Freq	Zreal	Zimag	Zsig	Zmod	Zphz	Idc	Vdc	IERange
	#	s	Hz	ohm	ohm	V	ohm	°	A	V	#
	0	1	1000078	2334.635	-1533.267	1	2793.103	-33.29483	-1.066578E-006	0.0115904	8
	1	1	794390.6	2634.655	-1452.504	1	3008.517	-28.86826	-2.467784E-006	0.0108023	8
	2	2	630984.4	2893.351	-1324.782	1	3182.22	-24.60168	-2.45018E-007	0.0100965	8
	3	2	501234.4	3103.142	-1184.989	1	3321.699	-20.90023	7.78155E-006	0.0094933	8
	4	2	398109.4	3282.188	-1063.319	1	3450.132	-17.95059	5.610047E-006	0.0091037	8
	5	3	316265.6	3416.88	-905.5127	1	3534.83	-14.84285	1.684393E-006	0.0098236	8
	6	3	251203.1	3511.94	-781.0765	1	3597.75	-12.53884	-7.149261E-007	0.009983	8
	7	3	199546.9	3581.443	-678.22	1	3645.095	-10.72316	-3.601422E-006	0.0108432	8
	8	4	158578.1	3654.702	-592.5039	1	3702.419	-9.208727	1.896755E-006	0.0105558	8
	9	4	125953.1	3720.183	-463.6638	1	3748.966	-7.104407	1.20511E-006	0.0117326	7
	10	4	100078.1	3747.398	-415.6117	1	3770.374	-6.328626	-1.220211E-006	0.0113411	7
	11	5	79453.13	3778.735	-386.2806	1	3798.427	-5.836778	7.77663E-007	0.0084697	7
	12	5	63140.62	3810.002	-367.19	1	3827.655	-5.504895	9.779575E-007	0.0085489	7
	13	5	50203.12	3838.783	-355.4386	1	3855.203	-5.290018	-1.051988E-006	0.0107587	7
	14	5	39890.62	3869.113	-355.0682	1	3885.371	-5.243343	1.016492E-006	0.0095182	7
	15	6	31640.63	3898.239	-361.0919	1	3914.927	-5.292179	-7.359058E-007	0.0100841	7
	16	6	25171.88	3927.993	-376.2185	1	3945.969	-5.471034	-7.346259E-007	0.0100827	7
	17	6	20015.62	3963.488	-400.919	1	3983.714	-5.775997	7.782912E-007	0.0084594	7
	18	7	15890.62	3992.471	-438.6146	1	4016.492	-6.269397	6.097916E-007	0.0104447	7
	19	7	12609.37	4027.454	-487.065	1	4056.799	-6.895647	9.787498E-007	0.0085513	7
	20	7	10078.13	4056.331	-546.7869	1	4093.018	-7.677104	-2.901435E-007	0.0115948	7
	21	8	8015.625	4092.194	-625.1239	1	4139.665	-8.685365	-1.224061E-006	0.0113331	7
	22	8	6328.125	4132.9	-727.4719	1	4196.437	-9.98292	7.794351E-007	0.008463	7
	23	8	5015.625	4175.33	-855.0369	1	4261.979	-11.5732	-7.3281E-007	0.01008	7
	24	9	3984.375	4215.472	-1002.561	1	4333.051	-13.37805	-6.209917E-007	0.011832	7
	25	9	3170.956	4275.307	-1206.752	1	4442.353	-15.7623	1.018141E-006	0.0095143	7
	26	9	2527.573	4334.669	-1444.967	1	4569.167	-18.43587	-8.975934E-007	0.0119131	7
	27	10	1976.103	4415.465	-1766.51	1	4755.722	-21.80503	6.106184E-007	0.0104389	7
	28	10	1577.524	4499.693	-2126.714	1	4976.962	-25.29708	-3.091835E-007	0.0093792	7
	29	10	1265.625	4609.258	-2550.56	1	5267.885	-28.9582	-7.338617E-007	0.0100708	7
	30	11	998.264	4744.749	-3116.292	1	5676.612	-33.29641	3.899499E-007	0.0107574	7
	31	11	796.875	4901.644	-3760.432	1	6177.941	-37.49462	-7.328991E-007	0.0100753	7
	32	11	627.7902	5099.378	-4599.507	1	6867.25	-42.04964	7.439823E-008	0.0111877	7
	33	12	505.5147	5307.28	-5526.438	1	7662.163	-46.15889	1.10106E-006	0.0090936	7
	34	12	397.9953	5583.821	-6767.152	1	8773.449	-50.47273	6.11561E-010	0.0102603	7
	35	12	315.5048	5904.591	-8251.333	1	10146.36	-54.41278	8.008266E-011	0.0101988	6
	36	13	252.4038	6271.012	-10004.48	1	11807.42	-57.91967	1.258763E-010	0.0101859	6
	37	13	198.6229	6751.964	-12321.17	1	14049.92	-61.27739	9.652934E-010	0.0101865	6
	38	13	158.3615	7316.55	-15019.17	1	16706.51	-64.02708	4.497386E-010	0.0101836	6
	39	14	125.558	8054.398	-18416.79	1	20101.03	-66.37832	2.206306E-010	0.0102008	6
	40	14	100.4464	8982.234	-22416.43	1	24149.06	-68.16409	1.129042E-009	0.0101964	6
	41	14	79.00281	10239.93	-27614.75	1	29452.18	-69.65452	1.344777E-009	0.0101951	6
	42	15	63.3446	11895.3	-33838.55	1	35868.45	-70.63184	-3.315241E-010	0.0101957	6
	43	15	49.86702	13944.11	-41513.99	1	43793.26	-71.43334	4.031929E-011	0.0101887	6
	44	15	39.72458	16702.51	-50143.67	1	52852.26	-71.57745	2.930836E-010	0.0101948	6
	45	16	31.6723	20230.71	-60629.81	1	63916	-71.54739	1.034136E-009	0.0101855	6
	46	16	24.93351	24962.35	-74028.4	1	78123.77	-71.36591	-1.881534E-010	0.0101923	6
	47	16	19.86229	30821.86	-89159.59	1	94336.73	-70.93008	-1.032808E-009	0.0101917	6
	48	16	15.83615	38796.91	-107143.1	1	113951.1	-70.0945	1.426677E-009	0.0101904	5
	49	17	12.40079	50029.54	-129402.2	1	138736.8	-68.86248	-8.113397E-010	0.0101959	5
	50	17	9.93114	60882.95	-152512	1	164215.3	-68.23808	9.975533E-010	0.0101849	5
	51	18	7.944915	75918.91	-179435.9	1	194835.6	-67.06689	5.243016E-010	0.0102058	5
	52	18	6.317385	94744.09	-211954.4	1	232166.1	-65.91525	2.97327E-010	0.0102008	5
	53	19	5.008013	118326	-248694.4	1	275408.7	-64.55543	4.963464E-010	0.0101914	5
	54	20	3.945707	147653.4	-291894	1	327114.1	-63.16762	5.95262E-011	0.0101778	5
	55	22	3.158693	180513.6	-335862.7	1	381299	-61.74364	3.464897E-010	0.0101764	5
	56	23	2.504006	220445.8	-387514.1	1	445829.1	-60.36567	4.369379E-010	0.0101837	5
	57	25	1.998082	265587.7	-442032.1	1	515683.3	-59.00115	1.689043E-010	0.0101461	5
	58	26	1.584686	317936.3	-505937.2	1	597541.6	-57.85431	1.272611E-010	0.010143	5
	59	28	1.266892	374150.1	-572356.6	1	683798.5	-56.82732	1.665471E-010	0.0101809	5
	60	31	0.999041	442021.2	-651078.7	1	786947.4	-55.82719	1.923873E-010	0.0102	5
