EXPLAIN
TAG	EISPOT
TITLE	LABEL	Potentiostatic EIS	Test &Identifier
DATE	LABEL	10/24/2019	Date
TIME	LABEL	10:43:38	Time
NOTES	NOTES	1	&Notes...
	
PSTAT	PSTAT	REF600-11020	Potentiostat
VDC	POTEN	0.00000E+000	T	DC &Voltage (V)
FREQINIT	QUANT	1.00000E+006	Initial Fre&q. (Hz)
FREQFINAL	QUANT	1.00000E+000	Final Fre&q. (Hz)
PTSPERDEC	QUANT	1.00000E+001	Points/&decade
VAC	QUANT	2.50000E+001	AC &Voltage (mV rms)
AREA	QUANT	1.00000E-002	&Area (cm^2)
CONDIT	TWOPARAM	T	5.00000E+000	0.00000E+000	Conditionin&g	Time(s)	E(V)
DELAY	TWOPARAM	T	5.00000E+000	0.00000E+000	Init. De&lay	Time(s)	Stab.(mV/s)
SPEED	SELECTOR	1	&Optimize for:
ZGUESS	QUANT	1.00000E+005	E&stimated Z (ohms)
OCVCURVE	TABLE	19
	Pt	T	Vf	Vm	Ach	Over
	#	s	V vs. Ref.	V	V	bits
	0	0.258333	5.00484E-003	5.00484E-003	5.57199E-004	...........
	1	0.516667	5.00373E-003	4.94680E-003	5.64932E-004	...........
	2	0.775	4.99694E-003	4.89281E-003	5.65499E-004	...........
	3	1.03333	4.97803E-003	4.85333E-003	5.65699E-004	...........
	4	1.29167	4.94625E-003	4.86189E-003	5.67999E-004	...........
	5	1.55	4.91444E-003	5.07215E-003	5.63399E-004	...........
	6	1.80833	4.90621E-003	5.02726E-003	5.69299E-004	...........
	7	2.06667	4.93020E-003	4.90432E-003	5.64732E-004	...........
	8	2.325	4.96096E-003	4.90643E-003	5.61599E-004	...........
	9	2.58333	4.96850E-003	4.93965E-003	5.63066E-004	...........
	10	2.84167	4.95936E-003	5.20190E-003	5.62232E-004	...........
	11	3.1	4.96358E-003	4.85924E-003	5.68799E-004	...........
	12	3.35833	4.98238E-003	4.89464E-003	5.65299E-004	...........
	13	3.61667	4.98450E-003	4.90205E-003	5.71566E-004	...........
	14	3.875	4.95903E-003	4.89707E-003	5.65532E-004	...........
	15	4.13333	4.92703E-003	4.89084E-003	5.67432E-004	...........
	16	4.39167	4.90560E-003	4.88694E-003	5.66732E-004	...........
	17	4.65	4.89500E-003	4.87906E-003	5.61832E-004	...........
	18	4.90833	4.88940E-003	4.86791E-003	5.71832E-004	...........
EOC	QUANT	0.0048894	Open Circuit (V)
PSTATMODEL	IQUANT	4	Pstat Model
PSTATSECTION	LABEL	REF600-11020	Pstat Section
PSTATSERIALNO	LABEL	11020	Pstat Serial Number
CTRLMODE	IQUANT	1	Control Mode
IESTAB	IQUANT	0	I/E Stability
CASPEED	IQUANT	1	Control Amp Speed
CONVENTION	IQUANT	1	Current Convention
ICHRANGE	IQUANT	2	Ich Range
ICHRANGEMODE	TOGGLE	F	Ich Auto Range
ICHOFFSETENABLE	TOGGLE	T	Ich Offset Enable
ICHOFFSET	QUANT	0	Ich Offset (V)
ICHFILTER	IQUANT	3	Ich Filter
VCHRANGE	IQUANT	2	Vch Range
VCHRANGEMODE	TOGGLE	F	Vch Auto Range
VCHOFFSETENABLE	TOGGLE	T	Vch Offset Enable
VCHOFFSET	QUANT	0	Vch Offset (V)
VCHFILTER	IQUANT	3	Vch Filter
ACHRANGE	IQUANT	2	Ach Range
ACHOFFSETENABLE	TOGGLE	F	Ach Offset Enable
ACHOFFSET	QUANT	0	Ach Offset (V)
ACHFILTER	IQUANT	3	Ach Filter
IERANGELOWERLIMIT	IQUANT	1	I/E Range Lower Limit
IERANGEMODE	TOGGLE	F	I/E AutoRange
IERANGE	IQUANT	4	I/E Range
POSFEEDENABLE	TOGGLE	F	Positive Feedback IR Comp
POSFEEDRESISTANCE	QUANT	0	Positive Feedback Resistance (ohm)
ACHSELECT	IQUANT	0	Ach Select
CABLEID	IQUANT	14	Cable ID
DCCALDATE	LABEL	8/19/2019	DC Calibration Date
ACCALDATE	LABEL	8/19/2019	AC Calibration Date
THERMOSELECT	IQUANT	1	Thermo Select
FRAMEWORKVERSION	QUANT	6.33	Framework Version
INSTRUMENTVERSION	LABEL	3.50	Instrument Version
ZCURVE	TABLE
	Pt	Time	Freq	Zreal	Zimag	Zsig	Zmod	Zphz	Idc	Vdc	IERange
	#	s	Hz	ohm	ohm	V	ohm	°	A	V	#
	0	1	1000078	2207.114	-1693.915	1	2782.211	-37.5055	2.38898E-006	0.0064051	8
	1	3	794390.6	2536.467	-1701.421	1	3054.259	-33.85307	2.066895E-006	0.0063844	8
	2	4	630984.4	2868.99	-1655.587	1	3312.412	-29.98765	-9.065717E-007	0.0069853	8
	3	6	501234.4	3151.316	-1565.922	1	3518.935	-26.42326	1.328355E-006	0.0066028	8
	4	7	398109.4	3422.008	-1475.527	1	3726.569	-23.3251	-2.65247E-006	0.0071715	8
	5	8	316265.6	3656.825	-1346.32	1	3896.787	-20.21201	-1.554565E-006	0.0069238	8
	6	10	251203.1	3851.051	-1232.148	1	4043.363	-17.74213	6.208992E-007	0.0064037	8
	7	11	199546.9	4028.856	-1089.386	1	4173.541	-15.13071	-4.032419E-007	0.0067266	8
	8	12	158578.1	4167.982	-993.779	1	4284.819	-13.41074	-2.366278E-006	0.0070819	8
	9	14	125953.1	4316.81	-819.4265	1	4393.894	-10.74814	-1.190564E-006	0.0090517	7
	10	15	100078.1	4386.907	-711.7971	1	4444.278	-9.216202	-1.167424E-008	0.0066497	7
	11	16	79453.13	4458.331	-635.4361	1	4503.387	-8.111609	5.397217E-008	0.0064339	7
	12	18	63140.62	4517.575	-570.499	1	4553.455	-7.197461	3.242704E-008	0.0064844	7
	13	19	50203.12	4568.129	-520.1681	1	4597.649	-6.49623	3.312561E-008	0.0064132	7
	14	21	39890.62	4610.865	-484.4153	1	4636.242	-5.997466	9.981823E-009	0.0064634	7
	15	22	31640.63	4650.27	-460.9178	1	4673.057	-5.660461	1.105862E-007	0.0063558	7
	16	23	25171.88	4686.392	-449.6685	1	4707.916	-5.480863	-3.102063E-008	0.0065386	7
	17	25	20015.62	4713.479	-454.024	1	4735.295	-5.502019	-3.863108E-008	0.0065954	7
	18	26	15890.62	4757.176	-464.6373	1	4779.812	-5.578433	3.16973E-008	0.0064807	7
	19	27	12609.37	4792.336	-493.2826	1	4817.657	-5.876846	-3.080657E-008	0.0065356	7
	20	29	10078.13	4828.608	-531.3181	1	4857.752	-6.279305	-1.062411E-008	0.0065594	7
	21	30	8015.625	4856.842	-579.3807	1	4891.277	-6.802762	-1.101323E-008	0.0065584	7
	22	31	6328.125	4900.972	-661.2026	1	4945.374	-7.683527	-2.450414E-008	0.0065363	7
	23	33	5015.625	4941.936	-759.4734	1	4999.953	-8.736825	-1.08804E-008	0.0065617	7
	24	34	3984.375	4954.982	-879.7786	1	5032.48	-10.06819	1.096751E-007	0.0063527	7
	25	35	3170.956	5026.27	-1037.359	1	5132.202	-11.6614	-2.896501E-009	0.0065308	7
	26	37	2527.573	5074.226	-1229.392	1	5221.032	-13.61928	-3.025492E-008	0.0065315	7
	27	38	1976.103	5129.83	-1494.594	1	5343.123	-16.24367	6.87867E-008	0.0064784	7
	28	40	1577.524	5148.506	-1797.447	1	5453.25	-19.24512	-3.119099E-008	0.0065334	7
	29	41	1265.625	5265.415	-2158.83	1	5690.794	-22.29372	-2.88594E-008	0.0065399	7
	30	42	998.264	5352.452	-2645.238	1	5970.429	-26.29907	-3.70944E-008	0.0065936	7
	31	44	796.875	5457.598	-3215.307	1	6334.317	-30.50418	-3.27695E-008	0.006533	7
	32	45	627.7902	5587.832	-3964.105	1	6851.131	-35.35255	-6.219521E-008	0.0066143	7
	33	46	505.5147	5738.421	-4809.17	1	7487.162	-39.96519	-8.577294E-009	0.006628	7
	34	48	397.9953	5942.252	-5939.227	1	8401.475	-44.98541	4.176302E-009	0.0065384	7
	35	49	315.5048	6191.855	-7304.71	1	9575.9	-49.71365	5.4291E-009	0.0065348	7
	36	51	252.4038	6498.434	-8912.997	1	11030.46	-53.90435	3.829409E-010	0.0064738	6
	37	52	198.6229	6916.944	-11042.24	1	13029.78	-57.93666	8.736555E-010	0.0064801	6
	38	53	158.3615	7428.017	-13517.95	1	15424.35	-61.21152	1.968071E-010	0.0064741	6
	39	55	125.558	8110.022	-16612.94	1	18486.81	-63.97953	8.403309E-010	0.0064754	6
	40	56	100.4464	8955.525	-20239.5	1	22132.3	-66.13169	1.716173E-009	0.0064719	6
	41	57	79.00281	10183.85	-25055.26	1	27045.83	-67.88045	1.511475E-009	0.0064736	6
	42	59	63.3446	11766.42	-30582.77	1	32768.19	-68.95627	9.992642E-010	0.0064727	6
	43	60	49.86702	13533.95	-37288.49	1	39668.62	-70.05151	1.090061E-009	0.0064699	6
	44	62	39.72458	16320.65	-45181.28	1	48038.64	-70.13896	9.146465E-010	0.006477	6
	45	63	31.6723	19848.72	-54683.62	1	58174.48	-70.05043	1.800117E-010	0.0064768	6
	46	64	24.93351	24464.52	-66422.27	1	70784.39	-69.78034	1.205232E-009	0.006472	6
	47	66	19.86229	30258.07	-79606.13	1	85162.71	-69.18834	1.612372E-009	0.0064712	6
	48	67	15.83615	37192.8	-95702.2	1	102675.3	-68.76235	2.429314E-009	0.0064762	6
	49	68	12.40079	47971.48	-113677.9	1	123385.3	-67.12051	-4.19371E-010	0.0064833	5
	50	70	9.93114	59247.97	-134834.8	1	147277.7	-66.27876	-2.048587E-013	0.0064848	5
	51	72	7.944915	73214.84	-157307.6	1	173511.1	-65.04157	-6.946247E-010	0.0064801	5
	52	73	6.317385	92082.75	-184318	1	206039.7	-63.45392	-2.848603E-010	0.0064791	5
	53	75	5.008013	114718.9	-214118.7	1	242914	-61.81882	-2.582622E-010	0.0064731	5
	54	78	3.945707	142606.1	-247236.7	1	285416.3	-60.02365	1.220245E-010	0.0064797	5
	55	80	3.158693	173336.8	-281068.8	1	330220.1	-58.33761	1.766939E-010	0.0064782	5
	56	84	2.504006	209357.8	-318606.4	1	381235.8	-56.6909	-9.577322E-011	0.0064913	5
	57	86	1.998082	246880	-356986.4	1	434038.1	-55.33355	4.427125E-010	0.0064512	5
	58	90	1.584686	290060.3	-401500.6	1	495315.8	-54.15413	-7.288505E-011	0.0064451	5
	59	93	1.266892	331991.3	-446830.2	1	556664.6	-53.38795	2.464003E-010	0.0064411	5
	60	98	0.999041	380255.5	-504736.8	1	631944.3	-53.00659	-9.049985E-011	0.0065085	5
