EXPLAIN
TAG	EISPOT
TITLE	LABEL	Potentiostatic EIS	Test &Identifier
DATE	LABEL	10/14/2019	Date
TIME	LABEL	11:13:06	Time
NOTES	NOTES	1	&Notes...
	
PSTAT	PSTAT	REF600-11020	Potentiostat
VDC	POTEN	0.00000E+000	T	DC &Voltage (V)
FREQINIT	QUANT	1.00000E+006	Initial Fre&q. (Hz)
FREQFINAL	QUANT	1.00000E+000	Final Fre&q. (Hz)
PTSPERDEC	QUANT	1.00000E+001	Points/&decade
VAC	QUANT	2.50000E+001	AC &Voltage (mV rms)
AREA	QUANT	1.00000E-002	&Area (cm^2)
CONDIT	TWOPARAM	T	5.00000E+000	0.00000E+000	Conditionin&g	Time(s)	E(V)
DELAY	TWOPARAM	T	5.00000E+000	0.00000E+000	Init. De&lay	Time(s)	Stab.(mV/s)
SPEED	SELECTOR	1	&Optimize for:
ZGUESS	QUANT	1.00000E+004	E&stimated Z (ohms)
OCVCURVE	TABLE	19
	Pt	T	Vf	Vm	Ach	Over
	#	s	V vs. Ref.	V	V	bits
	0	0.258333	6.02883E-003	6.02883E-003	5.58366E-004	...........
	1	0.516667	6.02760E-003	5.96405E-003	5.62766E-004	...........
	2	0.775	6.02061E-003	5.93494E-003	5.60899E-004	...........
	3	1.03333	6.00372E-003	5.94939E-003	5.62666E-004	...........
	4	1.29167	5.98091E-003	5.95859E-003	5.60599E-004	...........
	5	1.55	5.96248E-003	5.96067E-003	5.61066E-004	...........
	6	1.80833	5.95489E-003	5.99029E-003	5.62066E-004	...........
	7	2.06667	5.95452E-003	5.82423E-003	5.59832E-004	...........
	8	2.325	5.94611E-003	5.76160E-003	5.65599E-004	...........
	9	2.58333	5.91222E-003	5.67486E-003	5.63466E-004	...........
	10	2.84167	5.84881E-003	5.53627E-003	5.60199E-004	...........
	11	3.1	5.76602E-003	5.57032E-003	5.64632E-004	...........
	12	3.35833	5.68392E-003	5.68088E-003	5.61466E-004	...........
	13	3.61667	5.63508E-003	5.96177E-003	5.63966E-004	...........
	14	3.875	5.66000E-003	6.41766E-003	5.65499E-004	...........
	15	4.13333	5.78530E-003	6.43101E-003	5.61899E-004	...........
	16	4.39167	5.98641E-003	6.32566E-003	5.65332E-004	...........
	17	4.65	6.18378E-003	6.33859E-003	5.61466E-004	...........
	18	4.90833	6.30707E-003	6.28838E-003	5.57166E-004	...........
EOC	QUANT	0.0063071	Open Circuit (V)
PSTATMODEL	IQUANT	4	Pstat Model
PSTATSECTION	LABEL	REF600-11020	Pstat Section
PSTATSERIALNO	LABEL	11020	Pstat Serial Number
CTRLMODE	IQUANT	1	Control Mode
IESTAB	IQUANT	0	I/E Stability
CASPEED	IQUANT	1	Control Amp Speed
CONVENTION	IQUANT	1	Current Convention
ICHRANGE	IQUANT	2	Ich Range
ICHRANGEMODE	TOGGLE	F	Ich Auto Range
ICHOFFSETENABLE	TOGGLE	T	Ich Offset Enable
ICHOFFSET	QUANT	0	Ich Offset (V)
ICHFILTER	IQUANT	3	Ich Filter
VCHRANGE	IQUANT	2	Vch Range
VCHRANGEMODE	TOGGLE	F	Vch Auto Range
VCHOFFSETENABLE	TOGGLE	T	Vch Offset Enable
VCHOFFSET	QUANT	0	Vch Offset (V)
VCHFILTER	IQUANT	3	Vch Filter
ACHRANGE	IQUANT	2	Ach Range
ACHOFFSETENABLE	TOGGLE	F	Ach Offset Enable
ACHOFFSET	QUANT	0	Ach Offset (V)
ACHFILTER	IQUANT	3	Ach Filter
IERANGELOWERLIMIT	IQUANT	1	I/E Range Lower Limit
IERANGEMODE	TOGGLE	F	I/E AutoRange
IERANGE	IQUANT	6	I/E Range
POSFEEDENABLE	TOGGLE	F	Positive Feedback IR Comp
POSFEEDRESISTANCE	QUANT	0	Positive Feedback Resistance (ohm)
ACHSELECT	IQUANT	0	Ach Select
CABLEID	IQUANT	14	Cable ID
DCCALDATE	LABEL	8/19/2019	DC Calibration Date
ACCALDATE	LABEL	8/19/2019	AC Calibration Date
THERMOSELECT	IQUANT	1	Thermo Select
FRAMEWORKVERSION	QUANT	6.33	Framework Version
INSTRUMENTVERSION	LABEL	3.50	Instrument Version
ZCURVE	TABLE
	Pt	Time	Freq	Zreal	Zimag	Zsig	Zmod	Zphz	Idc	Vdc	IERange
	#	s	Hz	ohm	ohm	V	ohm	°	A	V	#
	0	2	1000078	2251.74	-1358.035	1	2629.561	-31.09439	1.041959E-006	0.008249	8
	1	3	794390.6	2509.335	-1279.974	1	2816.93	-27.02543	-8.992183E-007	0.0081995	8
	2	5	630984.4	2733.247	-1181.372	1	2977.63	-23.37511	-3.147134E-007	0.0080554	8
	3	6	501234.4	2911.139	-1041.536	1	3091.848	-19.68601	-2.670306E-006	0.0086075	8
	4	7	398109.4	3067.444	-923.3442	1	3203.401	-16.75254	-2.865928E-006	0.0084024	8
	5	9	316265.6	3197.2	-808.3203	1	3297.798	-14.18828	1.041193E-006	0.0076232	8
	6	10	251203.1	3283.694	-700.6536	1	3357.612	-12.04478	-2.07784E-006	0.0082406	8
	7	11	199546.9	3355.143	-609.0019	1	3409.966	-10.28792	8.721655E-007	0.0076976	8
	8	13	158578.1	3409.619	-536.5619	1	3451.579	-8.943129	1.750235E-007	0.0078533	8
	9	14	125953.1	3472.12	-433.1161	1	3499.029	-7.110411	1.084919E-006	0.0058025	7
	10	15	100078.1	3496.753	-390.6229	1	3518.503	-6.374096	-3.225366E-008	0.0078243	7
	11	17	79453.13	3527.951	-365.098	1	3546.792	-5.90835	-3.095032E-008	0.007821	7
	12	18	63140.62	3559.577	-347.3176	1	3576.481	-5.572864	-3.375697E-008	0.0078173	7
	13	19	50203.12	3588.896	-338.7192	1	3604.845	-5.391591	-3.178794E-008	0.0078132	7
	14	21	39890.62	3619.721	-337.7918	1	3635.448	-5.331392	3.528369E-008	0.0077649	7
	15	22	31640.63	3651.979	-345.9944	1	3668.333	-5.412141	-3.081592E-008	0.0078918	7
	16	23	25171.88	3685.492	-359.4002	1	3702.974	-5.569735	-4.656808E-008	0.0078669	7
	17	25	20015.62	3722.969	-387.467	1	3743.077	-5.941653	-3.213642E-008	0.0078051	7
	18	26	15890.62	3764.071	-409.6925	1	3786.301	-6.211788	7.829108E-008	0.0077474	7
	19	28	12609.37	3809.071	-441.1455	1	3834.531	-6.606249	1.053188E-008	0.0077362	7
	20	29	10078.13	3857.016	-480.4008	1	3886.818	-7.099766	-5.424883E-008	0.0079747	7
	21	30	8015.625	3913.245	-535.6285	1	3949.732	-7.793973	-4.566639E-008	0.0078607	7
	22	32	6328.125	3964.018	-582.9792	1	4006.658	-8.366385	1.458756E-009	0.0077699	7
	23	33	5015.625	4020.903	-649.028	1	4072.948	-9.169224	-5.447227E-008	0.0078696	7
	24	34	3984.375	4076.917	-727.2571	1	4141.274	-10.11427	3.653232E-008	0.0077638	7
	25	36	3170.956	4133.724	-821.1198	1	4214.488	-11.23495	-2.159905E-008	0.0078419	7
	26	37	2527.573	4189.63	-938.6543	1	4293.492	-12.62814	5.642182E-009	0.007891	7
	27	38	1976.103	4248.727	-1099.681	1	4388.733	-14.5112	-8.147225E-009	0.0078166	7
	28	40	1577.524	4300.958	-1287.51	1	4489.534	-16.6653	-5.464104E-008	0.0078618	7
	29	41	1265.625	4362.632	-1515.15	1	4618.251	-19.15221	-3.003145E-008	0.0078025	7
	30	42	998.264	4430.369	-1822.744	1	4790.674	-22.36326	-3.084006E-008	0.0078056	7
	31	44	796.875	4502.713	-2193.686	1	5008.661	-25.97497	-3.149571E-008	0.0078781	7
	32	45	627.7902	4589.283	-2684.099	1	5316.569	-30.32176	-2.994064E-008	0.0078102	7
	33	46	505.5147	4688.48	-3232.689	1	5694.921	-34.58611	-2.547771E-008	0.0078505	7
	34	48	397.9953	4820.222	-3983.869	1	6253.459	-39.57341	5.038348E-009	0.0078073	7
	35	49	315.5048	4977.515	-4891.511	1	6978.72	-44.50071	4.66248E-009	0.0078075	7
	36	50	252.4038	5169.81	-5967.081	1	7895.125	-49.09472	5.328013E-009	0.0078102	7
	37	52	198.6229	5434.782	-7392.193	1	9175.041	-53.67647	4.981669E-009	0.0078123	7
	38	53	158.3615	5758.422	-9048.393	1	10725.34	-57.52721	5.246903E-010	0.0077489	6
	39	54	125.558	6188.55	-11127.55	1	12732.65	-60.91951	6.375107E-010	0.0077514	6
	40	56	100.4464	6714.852	-13562.45	1	15133.72	-63.65971	-3.179572E-011	0.0077469	6
	41	57	79.00281	7465.389	-16728.94	1	18319.1	-65.95089	8.504864E-010	0.0077475	6
	42	59	63.3446	8262.343	-20212.56	1	21836.07	-67.7666	1.801338E-010	0.0077455	6
	43	60	49.86702	9552.12	-24968.21	1	26733.02	-69.06458	3.532529E-010	0.0077438	6
	44	61	39.72458	10893.35	-30353.09	1	32248.64	-70.25756	7.083693E-010	0.0077504	6
	45	63	31.6723	12703.97	-36813.2	1	38943.58	-70.96081	1.46524E-010	0.007748	6
	46	64	24.93351	14988.36	-45076.05	1	47502.65	-71.60738	7.336082E-010	0.0077409	6
	47	65	19.86229	17743.96	-54597.45	1	57408.45	-71.99603	1.348626E-010	0.007748	6
	48	67	15.83615	21457.14	-66212.31	1	69602.29	-72.04427	1.424089E-009	0.0077444	6
	49	68	12.40079	26202.61	-81056	1	85185.98	-72.08577	2.904637E-011	0.0077477	6
	50	70	9.93114	31787.32	-97212.7	1	102277.8	-71.89291	3.8526E-010	0.0077583	6
	51	71	7.944915	38849.25	-116600.6	1	122902.3	-71.57285	5.381952E-010	0.0077549	5
	52	73	6.317385	47869.57	-140074.1	1	148027.9	-71.13242	9.083477E-010	0.0077552	5
	53	75	5.008013	59319.13	-168773.4	1	178894.4	-70.63485	1.519121E-009	0.0077613	5
	54	77	3.945707	76130.13	-203982	1	217725.6	-69.53343	3.917872E-010	0.0077512	5
	55	80	3.158693	93142.09	-240027	1	257465.4	-68.79134	2.23483E-010	0.0077497	5
	56	83	2.504006	116109	-285778.9	1	308465.4	-67.8886	-1.692766E-011	0.0077571	5
	57	86	1.998082	143817.5	-335106.2	1	364663.8	-66.77245	3.52093E-010	0.0077224	5
	58	89	1.584686	177820.1	-395404.5	1	433548.9	-65.78574	2.275365E-011	0.0077041	5
	59	93	1.266892	216258.1	-461604.3	1	509751	-64.89727	2.920741E-010	0.0077321	5
	60	97	0.999041	265048.1	-540017.8	1	601556.1	-63.85756	-1.462986E-010	0.0077394	5
