EXPLAIN
TAG	EISPOT
TITLE	LABEL	Potentiostatic EIS	Test &Identifier
DATE	LABEL	11/20/2019	Date
TIME	LABEL	10:26:54	Time
NOTES	NOTES	4	&Notes...
	
	
	
	
PSTAT	PSTAT	REF600-11020	Potentiostat
VDC	POTEN	0.00000E+000	T	DC &Voltage (V)
FREQINIT	QUANT	1.00000E+006	Initial Fre&q. (Hz)
FREQFINAL	QUANT	1.00000E+000	Final Fre&q. (Hz)
PTSPERDEC	QUANT	1.00000E+001	Points/&decade
VAC	QUANT	2.50000E+001	AC &Voltage (mV rms)
AREA	QUANT	1.00000E-002	&Area (cm^2)
CONDIT	TWOPARAM	T	5.00000E+000	0.00000E+000	Conditionin&g	Time(s)	E(V)
DELAY	TWOPARAM	T	5.00000E+000	0.00000E+000	Init. De&lay	Time(s)	Stab.(mV/s)
SPEED	SELECTOR	0	&Optimize for:
ZGUESS	QUANT	1.00000E+005	E&stimated Z (ohms)
OCVCURVE	TABLE	19
	Pt	T	Vf	Vm	Ach	Over
	#	s	V vs. Ref.	V	V	bits
	0	0.258333	4.92675E-003	4.92675E-003	5.71099E-004	...........
	1	0.516667	4.92349E-003	4.75631E-003	5.73766E-004	...........
	2	0.775	4.90372E-003	4.60614E-003	5.75932E-004	...........
	3	1.03333	4.84891E-003	4.48354E-003	5.72199E-004	...........
	4	1.29167	4.75413E-003	4.37071E-003	5.78432E-004	...........
	5	1.55	4.63431E-003	4.27830E-003	5.74199E-004	...........
	6	1.80833	4.51028E-003	4.19572E-003	5.70099E-004	...........
	7	2.06667	4.39585E-003	4.12526E-003	5.73832E-004	...........
	8	2.325	4.29589E-003	4.05583E-003	5.77832E-004	...........
	9	2.58333	4.20944E-003	3.99217E-003	5.74565E-004	...........
	10	2.84167	4.13337E-003	3.94271E-003	5.72432E-004	...........
	11	3.1	4.06528E-003	3.89352E-003	5.76366E-004	...........
	12	3.35833	4.00413E-003	3.84587E-003	5.74199E-004	...........
	13	3.61667	3.94903E-003	3.80288E-003	5.66166E-004	...........
	14	3.875	3.89871E-003	3.76579E-003	5.74732E-004	...........
	15	4.13333	3.85235E-003	3.72954E-003	5.73232E-004	...........
	16	4.39167	3.80965E-003	3.69593E-003	5.71232E-004	...........
	17	4.65	3.77026E-003	3.66010E-003	5.78366E-004	...........
	18	4.90833	3.73349E-003	3.63329E-003	5.73166E-004	...........
EOC	QUANT	0.0037335	Open Circuit (V)
PSTATMODEL	IQUANT	4	Pstat Model
PSTATSECTION	LABEL	REF600-11020	Pstat Section
PSTATSERIALNO	LABEL	11020	Pstat Serial Number
CTRLMODE	IQUANT	1	Control Mode
IESTAB	IQUANT	0	I/E Stability
CASPEED	IQUANT	1	Control Amp Speed
CONVENTION	IQUANT	1	Current Convention
ICHRANGE	IQUANT	2	Ich Range
ICHRANGEMODE	TOGGLE	F	Ich Auto Range
ICHOFFSETENABLE	TOGGLE	T	Ich Offset Enable
ICHOFFSET	QUANT	0	Ich Offset (V)
ICHFILTER	IQUANT	3	Ich Filter
VCHRANGE	IQUANT	2	Vch Range
VCHRANGEMODE	TOGGLE	F	Vch Auto Range
VCHOFFSETENABLE	TOGGLE	T	Vch Offset Enable
VCHOFFSET	QUANT	0	Vch Offset (V)
VCHFILTER	IQUANT	3	Vch Filter
ACHRANGE	IQUANT	2	Ach Range
ACHOFFSETENABLE	TOGGLE	F	Ach Offset Enable
ACHOFFSET	QUANT	0	Ach Offset (V)
ACHFILTER	IQUANT	3	Ach Filter
IERANGELOWERLIMIT	IQUANT	1	I/E Range Lower Limit
IERANGEMODE	TOGGLE	F	I/E AutoRange
IERANGE	IQUANT	4	I/E Range
POSFEEDENABLE	TOGGLE	F	Positive Feedback IR Comp
POSFEEDRESISTANCE	QUANT	0	Positive Feedback Resistance (ohm)
ACHSELECT	IQUANT	0	Ach Select
CABLEID	IQUANT	14	Cable ID
DCCALDATE	LABEL	8/19/2019	DC Calibration Date
ACCALDATE	LABEL	8/19/2019	AC Calibration Date
THERMOSELECT	IQUANT	1	Thermo Select
FRAMEWORKVERSION	QUANT	6.33	Framework Version
INSTRUMENTVERSION	LABEL	3.50	Instrument Version
ZCURVE	TABLE
	Pt	Time	Freq	Zreal	Zimag	Zsig	Zmod	Zphz	Idc	Vdc	IERange
	#	s	Hz	ohm	ohm	V	ohm	°	A	V	#
	0	1	1000078	2213.904	-1974.062	1	2966.191	-41.7223	-1.613157E-006	0.0065744	8
	1	1	794390.6	2647.012	-1979.458	1	3305.288	-36.78946	-2.493848E-006	0.0063078	8
	2	2	630984.4	3047.849	-1906.664	1	3595.101	-32.02914	-3.35353E-006	0.0061402	8
	3	2	501234.4	3404.79	-1776.911	1	3840.574	-27.55942	-2.140601E-006	0.005943	8
	4	2	398109.4	3720.445	-1600.897	1	4050.257	-23.28208	-4.014303E-007	0.0050886	8
	5	3	316265.6	3968.3	-1422.147	1	4215.437	-19.71651	6.461611E-006	0.0046378	8
	6	3	251203.1	4154.976	-1238.84	1	4335.729	-16.60238	5.251998E-006	0.0042972	8
	7	3	199546.9	4295.223	-1078.837	1	4428.637	-14.09939	-6.943225E-007	0.0050658	8
	8	4	158578.1	4413.036	-932.4669	1	4510.475	-11.931	6.574136E-007	0.0056577	8
	9	4	125953.1	4519.738	-767.3202	1	4584.41	-9.63529	3.803498E-006	-0.0011181	7
	10	4	100078.1	4575.324	-670.6487	1	4624.214	-8.339004	-6.858005E-007	0.0051183	7
	11	5	79453.13	4628.315	-609.4545	1	4668.269	-7.501524	1.037097E-006	0.0038988	7
	12	5	63140.62	4675.893	-560.5265	1	4709.37	-6.83576	3.537021E-007	0.0058003	7
	13	5	50203.12	4718.748	-527.6065	1	4748.152	-6.379783	1.205875E-007	0.0039549	7
	14	6	39890.62	4759.422	-509.8784	1	4786.656	-6.114793	-1.15991E-006	0.0062928	7
	15	6	31640.63	4801.44	-507.3554	1	4828.171	-6.031909	-1.170434E-006	0.0066397	7
	16	6	25171.88	4843.237	-518.7311	1	4870.937	-6.113315	-1.160237E-006	0.0062914	7
	17	6	20015.62	4889.739	-544.3949	1	4919.951	-6.352814	9.403539E-007	0.0036636	7
	18	7	15890.62	4938.05	-580.0681	1	4972.003	-6.699777	7.529315E-007	0.0035766	7
	19	7	12609.37	4988.623	-630.2021	1	5028.271	-7.199915	-6.03308E-007	0.0067985	7
	20	7	10078.13	5040.551	-696.5269	1	5088.448	-7.867574	9.623163E-007	0.0046112	7
	21	8	8015.625	5103.16	-760.9048	1	5159.576	-8.480587	7.852453E-007	0.0050819	7
	22	8	6328.125	5161.113	-879.3268	1	5235.485	-9.66895	5.432536E-008	0.0062002	7
	23	8	5015.625	5227.291	-1005.383	1	5323.098	-10.88695	-8.625761E-007	0.0068659	7
	24	9	3984.375	5295.509	-1147.745	1	5418.463	-12.2291	5.465821E-008	0.0061949	7
	25	9	3170.956	5374.95	-1349.923	1	5541.875	-14.09828	1.226925E-007	0.0039501	7
	26	9	2527.573	5451.889	-1579.948	1	5676.208	-16.1615	-9.903968E-007	0.0057503	7
	27	10	1976.103	5545.345	-1891.247	1	5858.981	-18.83201	-6.870898E-007	0.005099	7
	28	10	1577.524	5635.459	-2270.783	1	6075.76	-21.94674	4.758078E-007	0.0036677	7
	29	10	1265.625	5733.967	-2677.892	1	6328.466	-25.03364	-1.15789E-006	0.0062859	7
	30	11	998.264	5859.265	-3257.265	1	6703.787	-29.07043	5.301858E-008	0.0061942	7
	31	11	796.875	5990.022	-3941.189	1	7170.309	-33.34328	9.390777E-007	0.0036595	7
	32	11	627.7902	6157.351	-4833.831	1	7828.083	-38.1337	4.737808E-007	0.0036674	7
	33	12	505.5147	6340.683	-5837.259	1	8618.46	-42.6328	1.037667E-006	0.0038808	7
	34	12	397.9953	6596.095	-7185.049	1	9753.63	-47.44712	9.2132E-010	0.0052857	7
	35	12	315.5048	6903.591	-8816.449	1	11197.74	-51.9378	1.10381E-009	0.0052263	6
	36	13	252.4038	7268.356	-10744.03	1	12971.63	-55.92158	2.206339E-010	0.005218	6
	37	13	198.6229	7763.502	-13290.11	1	15391.52	-59.70839	9.637239E-010	0.0052197	6
	38	13	158.3615	8361.643	-16251.68	1	18276.6	-62.77375	5.274137E-010	0.005227	6
	39	14	125.558	9147.769	-19967.17	1	21962.91	-65.38557	4.328041E-010	0.0052255	6
	40	14	100.4464	10103.79	-24296.32	1	26313.45	-67.41967	6.805322E-010	0.0052172	6
	41	14	79.00281	11470.73	-29985.91	1	32105.03	-69.06628	-1.202477E-010	0.0052248	6
	42	15	63.3446	13025.53	-36727.9	1	38969.26	-70.47298	4.626367E-010	0.0052132	6
	43	15	49.86702	15203.36	-45046.69	1	47543.1	-71.35035	-6.535226E-010	0.0052214	6
	44	16	39.72458	18184.41	-54575.48	1	57525.27	-71.57207	-1.241557E-010	0.0052274	6
	45	16	31.6723	21842.05	-65997.6	1	69518.05	-71.68793	2.847125E-010	0.0052171	6
	46	16	24.93351	26621.9	-80826.57	1	85097.95	-71.76963	1.797047E-010	0.0052228	6
	47	16	19.86229	32653.1	-97667.6	1	102981.4	-71.51373	1.320771E-009	0.0052186	6
	48	17	15.83615	39727.79	-116299	1	122897.4	-71.13982	8.50052E-010	0.0052272	5
	49	17	12.40079	51464.85	-142328.2	1	151347.1	-70.12037	2.038522E-010	0.0052343	5
	50	17	9.93114	63723.45	-169756.2	1	181322.5	-69.42476	2.043201E-010	0.0052198	5
	51	18	7.944915	79089.09	-201136.4	1	216127.2	-68.53469	-4.039212E-010	0.0052268	5
	52	19	6.317385	99691.3	-237893.8	1	257937.6	-67.2635	-2.01922E-010	0.005231	5
	53	19	5.008013	125469.9	-280908.6	1	307656.2	-65.93172	3.899369E-011	0.0052334	5
	54	20	3.945707	157731	-331301.4	1	366932.8	-64.54111	-1.114321E-010	0.0052169	5
	55	22	3.158693	194806.7	-384093.8	1	430671.3	-63.10655	1.67934E-010	0.0052302	5
	56	23	2.504006	240826.3	-445131.9	1	506102.4	-61.58562	1.383684E-010	0.0052258	5
	57	25	1.998082	294009.4	-510773.5	1	589348.1	-60.07458	-5.935714E-011	0.0051793	5
	58	26	1.584686	355279.3	-583452.9	1	683111.1	-58.6617	-1.375672E-011	0.0052075	5
	59	28	1.266892	424626.9	-659346.8	1	784248.8	-57.218	6.068438E-011	0.0052421	5
	60	31	0.999041	507017.3	-749482.8	1	904870.7	-55.92206	1.04609E-010	0.005251	5
