EXPLAIN
TAG	EISPOT
TITLE	LABEL	Potentiostatic EIS	Test &Identifier
DATE	LABEL	11/5/2019	Date
TIME	LABEL	9:13:15	Time
NOTES	NOTES	2	&Notes...
	
	
PSTAT	PSTAT	REF600-11020	Potentiostat
VDC	POTEN	0.00000E+000	T	DC &Voltage (V)
FREQINIT	QUANT	1.00000E+006	Initial Fre&q. (Hz)
FREQFINAL	QUANT	1.00000E+000	Final Fre&q. (Hz)
PTSPERDEC	QUANT	1.00000E+001	Points/&decade
VAC	QUANT	2.50000E+001	AC &Voltage (mV rms)
AREA	QUANT	1.00000E-002	&Area (cm^2)
CONDIT	TWOPARAM	T	5.00000E+000	0.00000E+000	Conditionin&g	Time(s)	E(V)
DELAY	TWOPARAM	T	5.00000E+000	0.00000E+000	Init. De&lay	Time(s)	Stab.(mV/s)
SPEED	SELECTOR	1	&Optimize for:
ZGUESS	QUANT	1.00000E+005	E&stimated Z (ohms)
OCVCURVE	TABLE	19
	Pt	T	Vf	Vm	Ach	Over
	#	s	V vs. Ref.	V	V	bits
	0	0.258333	2.67557E-003	2.67557E-003	5.70299E-004	...........
	1	0.516667	2.67589E-003	2.69218E-003	5.64699E-004	...........
	2	0.775	2.69601E-003	3.65913E-003	5.65899E-004	...........
	3	1.03333	2.78145E-003	2.91884E-003	5.66132E-004	...........
	4	1.29167	2.90240E-003	1.69460E-003	5.63832E-004	...........
	5	1.55	2.90068E-003	2.24573E-003	5.67099E-004	...........
	6	1.80833	2.68664E-003	1.65324E-003	5.74932E-004	...........
	7	2.06667	2.34115E-003	5.45152E-004	5.62666E-004	...........
	8	2.325	1.93400E-003	6.38991E-004	5.64566E-004	...........
	9	2.58333	1.48533E-003	8.27476E-004	5.64166E-004	...........
	10	2.84167	1.08825E-003	7.91429E-004	5.70632E-004	...........
	11	3.1	8.48794E-004	8.22245E-004	5.60266E-004	...........
	12	3.35833	7.68553E-004	9.27405E-004	5.64199E-004	...........
	13	3.61667	7.82045E-004	9.71160E-004	5.66166E-004	...........
	14	3.875	8.31276E-004	8.33348E-004	5.66466E-004	...........
	15	4.13333	8.74391E-004	7.84273E-004	5.66299E-004	...........
	16	4.39167	8.83071E-004	7.56096E-004	5.66466E-004	...........
	17	4.65	8.55142E-004	7.00246E-004	5.71332E-004	...........
	18	4.90833	8.08000E-004	6.55652E-004	5.60832E-004	...........
EOC	QUANT	0.000808	Open Circuit (V)
PSTATMODEL	IQUANT	4	Pstat Model
PSTATSECTION	LABEL	REF600-11020	Pstat Section
PSTATSERIALNO	LABEL	11020	Pstat Serial Number
CTRLMODE	IQUANT	1	Control Mode
IESTAB	IQUANT	0	I/E Stability
CASPEED	IQUANT	1	Control Amp Speed
CONVENTION	IQUANT	1	Current Convention
ICHRANGE	IQUANT	2	Ich Range
ICHRANGEMODE	TOGGLE	F	Ich Auto Range
ICHOFFSETENABLE	TOGGLE	T	Ich Offset Enable
ICHOFFSET	QUANT	0	Ich Offset (V)
ICHFILTER	IQUANT	3	Ich Filter
VCHRANGE	IQUANT	2	Vch Range
VCHRANGEMODE	TOGGLE	F	Vch Auto Range
VCHOFFSETENABLE	TOGGLE	T	Vch Offset Enable
VCHOFFSET	QUANT	0	Vch Offset (V)
VCHFILTER	IQUANT	3	Vch Filter
ACHRANGE	IQUANT	2	Ach Range
ACHOFFSETENABLE	TOGGLE	F	Ach Offset Enable
ACHOFFSET	QUANT	0	Ach Offset (V)
ACHFILTER	IQUANT	3	Ach Filter
IERANGELOWERLIMIT	IQUANT	1	I/E Range Lower Limit
IERANGEMODE	TOGGLE	F	I/E AutoRange
IERANGE	IQUANT	4	I/E Range
POSFEEDENABLE	TOGGLE	F	Positive Feedback IR Comp
POSFEEDRESISTANCE	QUANT	0	Positive Feedback Resistance (ohm)
ACHSELECT	IQUANT	0	Ach Select
CABLEID	IQUANT	14	Cable ID
DCCALDATE	LABEL	8/19/2019	DC Calibration Date
ACCALDATE	LABEL	8/19/2019	AC Calibration Date
THERMOSELECT	IQUANT	1	Thermo Select
FRAMEWORKVERSION	QUANT	6.33	Framework Version
INSTRUMENTVERSION	LABEL	3.50	Instrument Version
ZCURVE	TABLE
	Pt	Time	Freq	Zreal	Zimag	Zsig	Zmod	Zphz	Idc	Vdc	IERange
	#	s	Hz	ohm	ohm	V	ohm	°	A	V	#
	0	1	1000078	2350.02	-1580.434	1	2832.025	-33.9216	-3.030243E-006	0.002615	8
	1	2	794390.6	2650.667	-1504.791	1	3048.021	-29.5837	1.035648E-005	0.0016493	8
	2	4	630984.4	2927.325	-1381.72	1	3237.033	-25.26768	6.081727E-006	0.0015884	8
	3	5	501234.4	3153.137	-1234.501	1	3386.188	-21.38109	-1.157112E-006	0.0020759	8
	4	7	398109.4	3327.08	-1086.144	1	3499.881	-18.07957	-4.740373E-006	0.0027035	8
	5	8	316265.6	3469.193	-951.186	1	3597.229	-15.33261	-1.242539E-006	0.002753	8
	6	9	251203.1	3560.874	-829.3561	1	3656.18	-13.11091	7.843141E-007	0.0026904	8
	7	11	199546.9	3652.663	-711.5051	1	3721.315	-11.02266	-6.064397E-006	0.0031935	8
	8	12	158578.1	3709.175	-632.8294	1	3762.771	-9.68212	-2.744687E-006	0.0028641	8
	9	13	125953.1	3781.812	-512.2919	1	3816.352	-7.714446	-1.194435E-006	0.0010277	7
	10	15	100078.1	3822.776	-466.0448	1	3851.08	-6.950781	3.878146E-007	0.002842	7
	11	16	79453.13	3859.109	-452.5973	1	3885.559	-6.689107	1.040633E-006	0.0015607	7
	12	17	63140.62	3894.314	-440.5769	1	3919.157	-6.454619	-1.140005E-006	0.0039323	7
	13	19	50203.12	3933.962	-440.7117	1	3958.571	-6.392048	-2.940971E-007	0.0013522	7
	14	20	39890.62	3975.406	-453.1845	1	4001.153	-6.503475	5.205123E-007	0.0005267	7
	15	22	31640.63	4018.822	-474.1581	1	4046.697	-6.728898	8.221816E-007	0.0004133	7
	16	23	25171.88	4064.798	-505.9171	1	4096.161	-7.094723	8.227707E-007	0.0004178	7
	17	24	20015.62	4111.758	-545.0776	1	4147.729	-7.551419	1.129923E-006	0.0007536	7
	18	26	15890.62	4171.33	-598.2149	1	4214.007	-8.161202	1.130914E-006	0.0007563	7
	19	27	12609.37	4230.078	-660.3881	1	4281.317	-8.873233	5.870563E-008	0.0032641	7
	20	28	10078.13	4293.755	-733.6705	1	4355.985	-9.69644	5.845093E-008	0.0032626	7
	21	30	8015.625	4366.696	-821.9385	1	4443.379	-10.66	1.41806E-007	0.0008104	7
	22	31	6328.125	4446.032	-928.1282	1	4541.875	-11.7914	8.217096E-007	0.0004178	7
	23	32	5015.625	4526.112	-1053.982	1	4647.211	-13.10868	-1.140845E-006	0.0039219	7
	24	34	3984.375	4615.409	-1204.734	1	4770.05	-14.62918	-6.546056E-007	0.0039081	7
	25	35	3170.956	4708.847	-1389.183	1	4909.487	-16.43688	1.129183E-006	0.000751	7
	26	37	2527.573	4806.199	-1611.14	1	5069.055	-18.53225	-2.951942E-007	0.0013359	7
	27	38	1976.103	4920.182	-1903.11	1	5275.416	-21.14631	6.210307E-007	0.0024792	7
	28	39	1577.524	5040.255	-2233.209	1	5512.839	-23.89691	6.217902E-007	0.0024783	7
	29	41	1265.625	5159.211	-2635.704	1	5793.479	-27.06129	-2.962162E-007	0.0013378	7
	30	42	998.264	5318.933	-3161.334	1	6187.494	-30.72535	-1.254757E-006	0.0033523	7
	31	44	796.875	5481.448	-3773.996	1	6655.022	-34.54755	-1.075886E-006	0.0027567	7
	32	45	627.7902	5683.424	-4562.69	1	7288.309	-38.75772	-9.338614E-007	0.0039924	7
	33	46	505.5147	5886.889	-5445.321	1	8019.163	-42.76856	-1.076041E-006	0.0027586	7
	34	48	397.9953	6155.747	-6646.802	1	9059.426	-47.19656	2.680236E-009	0.0022777	7
	35	49	315.5048	6461.614	-8080.605	1	10346.43	-51.3526	8.679885E-010	0.002222	6
	36	50	252.4038	6802.433	-9775.43	1	11909.33	-55.16708	3.194648E-010	0.0022137	6
	37	52	198.6229	7238.629	-12024.52	1	14035.2	-58.95251	1.946874E-010	0.0022154	6
	38	53	158.3615	7738.46	-14656.44	1	16573.93	-62.16638	-4.349731E-010	0.0022166	6
	39	55	125.558	8375.229	-17975.12	1	19830.51	-65.01756	7.875398E-010	0.0022203	6
	40	56	100.4464	9142.503	-21919.89	1	23750.09	-67.35961	1.215436E-009	0.0022245	6
	41	57	79.00281	10262.78	-27122.38	1	28999.11	-69.27396	1.5185E-009	0.0022119	6
	42	59	63.3446	11828.11	-33000.55	1	35056.25	-70.28122	3.71688E-010	0.0022179	6
	43	60	49.86702	13159.94	-40961.25	1	43023.34	-72.18893	1.225234E-009	0.0022006	6
	44	61	39.72458	15476.77	-49758.04	1	52109.43	-72.72219	5.491735E-010	0.0022129	6
	45	63	31.6723	18529.31	-60676.95	1	63443.1	-73.01857	3.61732E-010	0.0022154	6
	46	64	24.93351	22495.86	-74582.7	1	77901.49	-73.21548	7.235244E-010	0.0022005	6
	47	66	19.86229	27571.24	-90408.58	1	94519.23	-73.04025	5.394993E-010	0.0022154	6
	48	67	15.83615	34165.18	-109938.6	1	115125	-72.73653	1.357845E-009	0.0022036	5
	49	68	12.40079	42766.23	-133795.9	1	140464.6	-72.27416	2.874239E-010	0.0022138	5
	50	70	9.93114	54233.86	-160294.1	1	169220.3	-71.30728	3.003789E-010	0.0022107	5
	51	72	7.944915	67913.7	-191606.4	1	203286.2	-70.48344	5.230886E-010	0.0022161	5
	52	73	6.317385	87053.88	-228169	1	244212	-69.11652	5.658692E-010	0.0022053	5
	53	75	5.008013	110896.4	-271348.6	1	293134.9	-67.77084	1.262168E-010	0.0022243	5
	54	78	3.945707	141765	-321725.4	1	351574.4	-66.21981	1.700294E-010	0.0022181	5
	55	80	3.158693	177597.8	-375018.3	1	414945.4	-64.65913	9.473654E-011	0.0022105	5
	56	84	2.504006	222335.2	-436083.8	1	489491.6	-62.98546	2.028614E-010	0.0022206	5
	57	86	1.998082	273730.2	-500792.6	1	570720.1	-61.33925	4.005615E-010	0.0022041	5
	58	90	1.584686	336530.7	-575303.4	1	666503.5	-59.67398	8.705556E-011	0.002162	5
	59	93	1.266892	402137.9	-651169.2	1	765334.1	-58.30206	3.269192E-010	0.0021962	5
	60	97	0.999041	485065.1	-744114.6	1	888253.7	-56.90092	-1.317641E-010	0.0022054	5
