EXPLAIN
TAG	EISPOT
TITLE	LABEL	Potentiostatic EIS	Test &Identifier
DATE	LABEL	10/22/2019	Date
TIME	LABEL	8:38:02	Time
NOTES	NOTES	1	&Notes...
	
PSTAT	PSTAT	REF600-11020	Potentiostat
VDC	POTEN	0.00000E+000	T	DC &Voltage (V)
FREQINIT	QUANT	1.00000E+006	Initial Fre&q. (Hz)
FREQFINAL	QUANT	1.00000E+000	Final Fre&q. (Hz)
PTSPERDEC	QUANT	1.00000E+001	Points/&decade
VAC	QUANT	2.50000E+001	AC &Voltage (mV rms)
AREA	QUANT	1.00000E-002	&Area (cm^2)
CONDIT	TWOPARAM	T	5.00000E+000	0.00000E+000	Conditionin&g	Time(s)	E(V)
DELAY	TWOPARAM	T	5.00000E+000	0.00000E+000	Init. De&lay	Time(s)	Stab.(mV/s)
SPEED	SELECTOR	1	&Optimize for:
ZGUESS	QUANT	1.00000E+005	E&stimated Z (ohms)
OCVCURVE	TABLE	19
	Pt	T	Vf	Vm	Ach	Over
	#	s	V vs. Ref.	V	V	bits
	0	0.258333	4.10439E-003	4.10439E-003	5.26033E-004	...........
	1	0.516667	4.10148E-003	3.95181E-003	5.27566E-004	...........
	2	0.775	4.08414E-003	3.83665E-003	5.31166E-004	...........
	3	1.03333	4.03666E-003	3.70976E-003	5.25666E-004	...........
	4	1.29167	3.95535E-003	3.66064E-003	5.28900E-004	...........
	5	1.55	3.85525E-003	3.60083E-003	5.27333E-004	...........
	6	1.80833	3.76689E-003	4.01955E-003	5.27500E-004	...........
	7	2.06667	3.72100E-003	3.41668E-003	5.23266E-004	...........
	8	2.325	3.70517E-003	3.45345E-003	5.22133E-004	...........
	9	2.58333	3.66452E-003	3.30352E-003	5.20466E-004	...........
	10	2.84167	3.57218E-003	3.16275E-003	5.24733E-004	...........
	11	3.1	3.44934E-003	3.11844E-003	5.23066E-004	...........
	12	3.35833	3.32658E-003	3.14503E-003	5.21900E-004	...........
	13	3.61667	3.23110E-003	3.29076E-003	5.21300E-004	...........
	14	3.875	3.18485E-003	3.24045E-003	5.18700E-004	...........
	15	4.13333	3.18649E-003	3.21016E-003	5.21733E-004	...........
	16	4.39167	3.20780E-003	3.19924E-003	5.24633E-004	...........
	17	4.65	3.22064E-003	3.19761E-003	5.27233E-004	...........
	18	4.90833	3.21838E-003	3.18202E-003	5.24566E-004	...........
EOC	QUANT	0.0032184	Open Circuit (V)
PSTATMODEL	IQUANT	4	Pstat Model
PSTATSECTION	LABEL	REF600-11020	Pstat Section
PSTATSERIALNO	LABEL	11020	Pstat Serial Number
CTRLMODE	IQUANT	1	Control Mode
IESTAB	IQUANT	0	I/E Stability
CASPEED	IQUANT	1	Control Amp Speed
CONVENTION	IQUANT	1	Current Convention
ICHRANGE	IQUANT	2	Ich Range
ICHRANGEMODE	TOGGLE	F	Ich Auto Range
ICHOFFSETENABLE	TOGGLE	T	Ich Offset Enable
ICHOFFSET	QUANT	0	Ich Offset (V)
ICHFILTER	IQUANT	3	Ich Filter
VCHRANGE	IQUANT	2	Vch Range
VCHRANGEMODE	TOGGLE	F	Vch Auto Range
VCHOFFSETENABLE	TOGGLE	T	Vch Offset Enable
VCHOFFSET	QUANT	0	Vch Offset (V)
VCHFILTER	IQUANT	3	Vch Filter
ACHRANGE	IQUANT	2	Ach Range
ACHOFFSETENABLE	TOGGLE	F	Ach Offset Enable
ACHOFFSET	QUANT	0	Ach Offset (V)
ACHFILTER	IQUANT	3	Ach Filter
IERANGELOWERLIMIT	IQUANT	1	I/E Range Lower Limit
IERANGEMODE	TOGGLE	F	I/E AutoRange
IERANGE	IQUANT	4	I/E Range
POSFEEDENABLE	TOGGLE	F	Positive Feedback IR Comp
POSFEEDRESISTANCE	QUANT	0	Positive Feedback Resistance (ohm)
ACHSELECT	IQUANT	0	Ach Select
CABLEID	IQUANT	14	Cable ID
DCCALDATE	LABEL	8/19/2019	DC Calibration Date
ACCALDATE	LABEL	8/19/2019	AC Calibration Date
THERMOSELECT	IQUANT	1	Thermo Select
FRAMEWORKVERSION	QUANT	6.33	Framework Version
INSTRUMENTVERSION	LABEL	3.50	Instrument Version
ZCURVE	TABLE
	Pt	Time	Freq	Zreal	Zimag	Zsig	Zmod	Zphz	Idc	Vdc	IERange
	#	s	Hz	ohm	ohm	V	ohm	°	A	V	#
	0	1	1000078	2399.652	-1703.538	1	2942.85	-35.37134	-7.073016E-006	0.0070415	8
	1	3	794390.6	2718.908	-1684.726	1	3198.556	-31.78372	3.882228E-006	0.0049356	8
	2	4	630984.4	3013.219	-1660.256	1	3440.34	-28.85436	-4.208047E-006	0.0057862	8
	3	6	501234.4	3297.139	-1587.349	1	3659.345	-25.70767	-1.706157E-006	0.0054126	8
	4	7	398109.4	3568.485	-1500.18	1	3870.998	-22.80174	-6.398945E-007	0.0052105	8
	5	8	316265.6	3831.796	-1407.671	1	4082.181	-20.17161	1.126038E-006	0.0046251	8
	6	10	251203.1	4055.368	-1302.353	1	4259.358	-17.80406	-7.427062E-007	0.0051416	8
	7	11	199546.9	4231.825	-1159.118	1	4387.698	-15.31791	1.436796E-006	0.0047113	8
	8	13	158578.1	4400.796	-1020.426	1	4517.552	-13.05465	-2.842841E-006	0.0054673	8
	9	14	125953.1	4550.831	-842.4229	1	4628.146	-10.48754	-1.762245E-007	0.0053919	7
	10	16	100078.1	4640.273	-739.4872	1	4698.828	-9.054679	-8.097589E-008	0.0049396	7
	11	17	79453.13	4715.988	-654.3232	1	4761.164	-7.899116	6.131383E-008	0.0047007	7
	12	18	63140.62	4775.833	-581.9673	1	4811.161	-6.947622	-4.282383E-008	0.0048894	7
	13	20	50203.12	4826.146	-524.58	1	4854.571	-6.203436	-5.581249E-009	0.0048325	7
	14	21	39890.62	4869.177	-482.2537	1	4893	-5.65625	-3.273104E-009	0.0048093	7
	15	22	31640.63	4905.608	-453.1071	1	4926.49	-5.277158	8.061177E-008	0.0046239	7
	16	24	25171.88	4939.454	-439.0131	1	4958.925	-5.079039	-3.25865E-008	0.0048027	7
	17	25	20015.62	4966.202	-427.8555	1	4984.599	-4.924071	-3.81857E-008	0.0048103	7
	18	27	15890.62	5001.913	-449.5948	1	5022.078	-5.136205	-4.10767E-008	0.0048792	7
	19	28	12609.37	5035.935	-475.6412	1	5058.347	-5.395549	-5.568025E-008	0.0049696	7
	20	29	10078.13	5065.474	-513.4635	1	5091.431	-5.788037	-3.853573E-008	0.0048157	7
	21	31	8015.625	5113.121	-567.3089	1	5144.497	-6.331163	-1.623268E-008	0.0047635	7
	22	32	6328.125	5133.735	-647.6531	1	5174.427	-7.19024	-3.930147E-008	0.0048104	7
	23	33	5015.625	5173.832	-745.6004	1	5227.28	-8.200432	4.112981E-008	0.0047496	7
	24	35	3984.375	5212.301	-865.5637	1	5283.681	-9.428596	-1.824484E-009	0.0048052	7
	25	36	3170.956	5262.055	-1028.459	1	5361.618	-11.05894	-3.182231E-008	0.0048031	7
	26	37	2527.573	5315.276	-1221.803	1	5453.894	-12.94549	1.339925E-007	0.0045897	7
	27	39	1976.103	5379.016	-1481.309	1	5579.255	-15.39685	-2.463628E-009	0.0047999	7
	28	40	1577.524	5436.919	-1767.379	1	5716.968	-18.00779	-1.791418E-008	0.0048367	7
	29	42	1265.625	5524.501	-2127.766	1	5920.093	-21.06423	-3.399761E-008	0.0048035	7
	30	43	998.264	5615.707	-2597.635	1	6187.396	-24.82366	6.231984E-008	0.0046848	7
	31	44	796.875	5724.206	-3145.732	1	6531.627	-28.79095	9.393185E-008	0.0047169	7
	32	46	627.7902	5852.747	-3867.339	1	7015.052	-33.45567	-1.638375E-008	0.0048405	7
	33	47	505.5147	6002.621	-4660.847	1	7599.668	-37.82822	-3.859091E-008	0.004799	7
	34	48	397.9953	6196.721	-5755.094	1	8456.977	-42.88385	4.100249E-009	0.0048039	7
	35	50	315.5048	6425.253	-7069.189	1	9552.87	-47.732	4.545871E-009	0.0048047	7
	36	51	252.4038	6699.829	-8622.614	1	10919.58	-52.15255	9.626904E-010	0.0047459	6
	37	52	198.6229	7069.124	-10686.63	1	12813.14	-56.51567	1.019182E-009	0.0047467	6
	38	54	158.3615	7514.574	-13099.69	1	15102.01	-60.15947	1.103834E-009	0.0047469	6
	39	55	125.558	8103.882	-16131.96	1	18053.06	-63.32736	7.276436E-010	0.0047456	6
	40	57	100.4464	8856.35	-19691.08	1	21591.05	-65.78347	4.515093E-010	0.0047424	6
	41	58	79.00281	9848.02	-24388.35	1	26301.62	-68.01114	2.339708E-010	0.0047414	6
	42	59	63.3446	11346.8	-29609.25	1	31708.95	-69.03226	3.588722E-010	0.0047443	6
	43	61	49.86702	12775.36	-36822.27	1	38975.5	-70.86596	1.138896E-009	0.0047455	6
	44	62	39.72458	15155.76	-44761.11	1	47257.32	-71.2943	9.322272E-010	0.0047498	6
	45	64	31.6723	18331.95	-54442.59	1	57446.11	-71.39055	5.447883E-010	0.0047441	6
	46	65	24.93351	22386.99	-66776.12	1	70428.88	-71.46604	1.153038E-009	0.0047438	6
	47	66	19.86229	27859.98	-80889.27	1	85552.63	-70.99521	4.490201E-010	0.0047414	6
	48	68	15.83615	34714.89	-97818.7	1	103796	-70.46072	-8.073113E-010	0.0047463	6
	49	69	12.40079	44750.94	-117753.7	1	125970.6	-69.19128	6.667636E-010	0.0047462	5
	50	71	9.93114	56653.98	-139796.5	1	150840.1	-67.93924	7.374006E-010	0.0047444	5
	51	72	7.944915	71924.77	-164360.6	1	179409	-66.36564	2.917284E-011	0.0047565	5
	52	74	6.317385	90957.99	-192598.8	1	212996.8	-64.72019	-3.876768E-010	0.0047531	5
	53	76	5.008013	114756.6	-224274	1	251928.4	-62.90207	-2.565145E-010	0.0047406	5
	54	78	3.945707	143786.9	-259122.9	1	296343.3	-60.97416	4.85177E-010	0.0047566	5
	55	81	3.158693	175868.4	-294361	1	342896.7	-59.14345	-1.171751E-010	0.0047484	5
	56	84	2.504006	212229.7	-334157.6	1	395857	-57.57961	4.792717E-010	0.0047449	5
	57	87	1.998082	251893	-374700.5	1	451498.1	-56.08897	-3.616598E-011	0.0047883	5
	58	90	1.584686	293830.4	-422061.2	1	514268.4	-55.15514	2.060249E-010	0.0047515	5
	59	94	1.266892	339423.4	-473438.2	1	582539.3	-54.36201	5.195169E-011	0.004791	5
	60	98	0.999041	389537	-536804.4	1	663248.1	-54.03315	-8.856044E-011	0.0047062	5
