EXPLAIN
TAG	EISPOT
TITLE	LABEL	Potentiostatic EIS	Test &Identifier
DATE	LABEL	9/20/2019	Date
TIME	LABEL	11:09:29	Time
NOTES	NOTES	1	&Notes...
	
PSTAT	PSTAT	REF600-11020	Potentiostat
VDC	POTEN	0.00000E+000	T	DC &Voltage (V)
FREQINIT	QUANT	1.00000E+006	Initial Fre&q. (Hz)
FREQFINAL	QUANT	1.00000E+000	Final Fre&q. (Hz)
PTSPERDEC	QUANT	1.00000E+001	Points/&decade
VAC	QUANT	2.50000E+001	AC &Voltage (mV rms)
AREA	QUANT	1.00000E-002	&Area (cm^2)
CONDIT	TWOPARAM	T	5.00000E+000	0.00000E+000	Conditionin&g	Time(s)	E(V)
DELAY	TWOPARAM	T	5.00000E+000	0.00000E+000	Init. De&lay	Time(s)	Stab.(mV/s)
SPEED	SELECTOR	1	&Optimize for:
ZGUESS	QUANT	1.00000E+004	E&stimated Z (ohms)
OCVCURVE	TABLE	19
	Pt	T	Vf	Vm	Ach	Over
	#	s	V vs. Ref.	V	V	bits
	0	0.258333	3.69443E-003	3.69443E-003	5.55166E-004	...........
	1	0.516667	3.69078E-003	3.50361E-003	5.55799E-004	...........
	2	0.775	3.66814E-003	3.30913E-003	5.52632E-004	...........
	3	1.03333	3.60343E-003	3.13392E-003	5.54533E-004	...........
	4	1.29167	3.48744E-003	2.99158E-003	5.52399E-004	...........
	5	1.55	3.33526E-003	2.84836E-003	5.53032E-004	...........
	6	1.80833	3.17283E-003	2.77343E-003	5.45433E-004	...........
	7	2.06667	3.01958E-003	2.59200E-003	5.52832E-004	...........
	8	2.325	2.88115E-003	2.52446E-003	5.53066E-004	...........
	9	2.58333	2.75335E-003	2.36849E-003	5.51999E-004	...........
	10	2.84167	2.63133E-003	2.28864E-003	5.48299E-004	...........
	11	3.1	2.51420E-003	2.21770E-003	5.51832E-004	...........
	12	3.35833	2.40388E-003	2.06114E-003	5.45199E-004	...........
	13	3.61667	2.29894E-003	1.96088E-003	5.51899E-004	...........
	14	3.875	2.19349E-003	1.86837E-003	5.47833E-004	...........
	15	4.13333	2.08563E-003	1.77298E-003	5.52666E-004	...........
	16	4.39167	1.97944E-003	1.68113E-003	5.58132E-004	...........
	17	4.65	1.87822E-003	1.58990E-003	5.51133E-004	...........
	18	4.90833	1.78189E-003	1.50363E-003	5.48966E-004	...........
EOC	QUANT	0.0017819	Open Circuit (V)
PSTATMODEL	IQUANT	4	Pstat Model
PSTATSECTION	LABEL	REF600-11020	Pstat Section
PSTATSERIALNO	LABEL	11020	Pstat Serial Number
CTRLMODE	IQUANT	1	Control Mode
IESTAB	IQUANT	0	I/E Stability
CASPEED	IQUANT	1	Control Amp Speed
CONVENTION	IQUANT	1	Current Convention
ICHRANGE	IQUANT	2	Ich Range
ICHRANGEMODE	TOGGLE	F	Ich Auto Range
ICHOFFSETENABLE	TOGGLE	T	Ich Offset Enable
ICHOFFSET	QUANT	0	Ich Offset (V)
ICHFILTER	IQUANT	3	Ich Filter
VCHRANGE	IQUANT	2	Vch Range
VCHRANGEMODE	TOGGLE	F	Vch Auto Range
VCHOFFSETENABLE	TOGGLE	T	Vch Offset Enable
VCHOFFSET	QUANT	0	Vch Offset (V)
VCHFILTER	IQUANT	3	Vch Filter
ACHRANGE	IQUANT	2	Ach Range
ACHOFFSETENABLE	TOGGLE	F	Ach Offset Enable
ACHOFFSET	QUANT	0	Ach Offset (V)
ACHFILTER	IQUANT	3	Ach Filter
IERANGELOWERLIMIT	IQUANT	1	I/E Range Lower Limit
IERANGEMODE	TOGGLE	F	I/E AutoRange
IERANGE	IQUANT	5	I/E Range
POSFEEDENABLE	TOGGLE	F	Positive Feedback IR Comp
POSFEEDRESISTANCE	QUANT	0	Positive Feedback Resistance (ohm)
ACHSELECT	IQUANT	0	Ach Select
CABLEID	IQUANT	14	Cable ID
DCCALDATE	LABEL	8/19/2019	DC Calibration Date
ACCALDATE	LABEL	8/19/2019	AC Calibration Date
THERMOSELECT	IQUANT	1	Thermo Select
FRAMEWORKVERSION	QUANT	6.33	Framework Version
INSTRUMENTVERSION	LABEL	3.50	Instrument Version
ZCURVE	TABLE
	Pt	Time	Freq	Zreal	Zimag	Zsig	Zmod	Zphz	Idc	Vdc	IERange
	#	s	Hz	ohm	ohm	V	ohm	°	A	V	#
	0	1	1000078	2362.409	-2060.608	1	3134.818	-41.09652	-1.655802E-006	0.0046262	8
	1	3	794390.6	2789.316	-2066.722	1	3471.544	-36.53631	1.48499E-006	0.0038676	8
	2	4	630984.4	3194.809	-2009.154	1	3774.057	-32.165	-3.641833E-007	0.0037385	8
	3	5	501234.4	3582.891	-1896.655	1	4053.937	-27.89515	2.116968E-006	0.0029479	8
	4	7	398109.4	3888.705	-1732.099	1	4257.017	-24.00905	1.750592E-006	0.0029116	8
	5	8	316265.6	4168.413	-1531.005	1	4440.681	-20.16764	-2.492711E-006	0.0037418	8
	6	10	251203.1	4375.865	-1353.53	1	4580.419	-17.18773	-1.964642E-007	0.0033776	8
	7	11	199546.9	4555.793	-1194.852	1	4709.875	-14.69602	1.881523E-007	0.0033817	8
	8	12	158578.1	4683.623	-1018.495	1	4793.084	-12.26847	-2.296656E-006	0.0037025	8
	9	14	125953.1	4795.063	-847.634	1	4869.406	-10.02474	1.610057E-007	0.0027976	7
	10	15	100078.1	4865.223	-749.4908	1	4922.614	-8.757608	-3.034034E-009	0.0033854	7
	11	17	79453.13	4927.609	-680.0229	1	4974.311	-7.857337	-3.11816E-008	0.0034217	7
	12	18	63140.62	4981.775	-627.255	1	5021.108	-7.176344	-5.140622E-008	0.003505	7
	13	19	50203.12	5031.449	-591.6808	1	5066.119	-6.70698	-1.417147E-008	0.0033537	7
	14	21	39890.62	5075.937	-574.5456	1	5108.35	-6.457827	1.41652E-008	0.0032541	7
	15	22	31640.63	5120.604	-571.9338	1	5152.445	-6.373104	3.754407E-009	0.0032557	7
	16	23	25171.88	5165.814	-585.9092	1	5198.936	-6.470863	-6.169515E-008	0.0034266	7
	17	25	20015.62	5209.732	-615.0777	1	5245.916	-6.733354	-1.395112E-008	0.0033562	7
	18	26	15890.62	5257.027	-660.3298	1	5298.336	-7.159369	-3.340691E-008	0.0034199	7
	19	27	12609.37	5309.224	-725.5403	1	5358.569	-7.781643	-4.567106E-008	0.0033814	7
	20	29	10078.13	5361.344	-807.5458	1	5421.82	-8.565715	1.326663E-008	0.0032559	7
	21	30	8015.625	5419.321	-916.2161	1	5496.225	-9.59596	-5.708983E-008	0.0033845	7
	22	31	6328.125	5483.954	-1058.486	1	5585.171	-10.92461	-6.167327E-008	0.003416	7
	23	33	5015.625	5555.689	-1231.352	1	5690.511	-12.49691	-3.827319E-008	0.0033294	7
	24	34	3984.375	5635.994	-1442.524	1	5817.672	-14.35657	-5.977613E-008	0.0033799	7
	25	35	3170.956	5725.88	-1700.461	1	5973.045	-16.54027	-4.779635E-008	0.0033683	7
	26	37	2527.573	5826.076	-2016.287	1	6165.109	-19.0897	-1.411774E-008	0.003344	7
	27	38	1976.103	5956.092	-2433.732	1	6434.134	-22.22552	-3.859623E-008	0.0034189	7
	28	39	1577.524	6092.545	-2906.15	1	6750.172	-25.50119	9.356741E-008	0.0032515	7
	29	41	1265.625	6247.532	-3456.241	1	7139.836	-28.95212	1.441396E-008	0.0032476	7
	30	42	998.264	6449.485	-4192.72	1	7692.513	-33.02733	-3.64174E-008	0.0034127	7
	31	44	796.875	6679.142	-5037.04	1	8365.566	-37.02158	4.198538E-008	0.0031766	7
	32	45	627.7902	6965.495	-6125.4	1	9275.702	-41.32814	1.403723E-008	0.0032476	7
	33	46	505.5147	7281.994	-7332.729	1	10334.23	-45.19891	-5.123845E-009	0.003245	6
	34	48	397.9953	7692.812	-8950.78	1	11802.37	-49.32235	1.424745E-009	0.0032812	6
	35	49	315.5048	8180.124	-10873.37	1	13606.79	-53.04557	5.680112E-010	0.0032768	6
	36	50	252.4038	8749.268	-13120.83	1	15770.41	-56.30374	6.980705E-010	0.0032762	6
	37	52	198.6229	9496.112	-16071.54	1	18667.36	-59.42264	8.721053E-010	0.0032785	6
	38	53	158.3615	10379.24	-19484.68	1	22076.71	-61.95634	4.97938E-010	0.0032741	6
	39	54	125.558	11509.29	-23746.35	1	26388.5	-64.14163	1.218819E-009	0.0032769	6
	40	56	100.4464	12872.3	-28723.38	1	31475.85	-65.8606	2.713171E-010	0.003276	6
	41	57	79.00281	14852.71	-35213.28	1	38217.51	-67.13033	3.84242E-010	0.0032729	6
	42	58	63.3446	16786.76	-42662.32	1	45846.15	-68.52136	5.595244E-010	0.0032701	6
	43	60	49.86702	20555.73	-51726.58	1	55661.27	-68.32753	9.423246E-011	0.0032713	6
	44	61	39.72458	24818.1	-62788.86	1	67515.77	-68.43296	4.681068E-010	0.0032724	6
	45	63	31.6723	30257.08	-75334.48	1	81183.59	-68.1178	7.393254E-010	0.0032794	6
	46	64	24.93351	38049.04	-91105.53	1	98731.7	-67.33278	6.51329E-010	0.0032741	6
	47	65	19.86229	47624.09	-108002.8	1	118036.7	-66.20481	-1.774752E-012	0.0032825	5
	48	67	15.83615	60464.98	-128127.3	1	141677.9	-64.73676	1.933175E-009	0.0032717	5
	49	68	12.40079	75642.34	-150741.9	1	168656.1	-63.35248	8.703865E-010	0.0032745	5
	50	69	9.93114	94271.6	-173447.8	1	197411.4	-61.47522	1.234361E-009	0.0032778	5
	51	71	7.944915	116167	-198500.3	1	229993.8	-59.66282	5.919353E-010	0.0032807	5
	52	73	6.317385	142027.2	-225718.2	1	266684.2	-57.82093	1.437495E-010	0.0032958	5
	53	75	5.008013	172179.1	-254665.5	1	307408.8	-55.93742	5.883919E-010	0.003285	5
	54	77	3.945707	206170.3	-286502.5	1	352972.9	-54.2608	1.658472E-010	0.0032765	5
	55	80	3.158693	240223.2	-318536.4	1	398964.5	-52.97835	5.23328E-010	0.0032927	5
	56	83	2.504006	278064.2	-355636	1	451438.4	-51.97891	-1.346716E-010	0.0032819	5
	57	86	1.998082	316121.9	-395347.9	1	506194.7	-51.35402	2.056053E-010	0.0032383	5
	58	89	1.584686	356116	-444238.1	1	569355.8	-51.28318	1.317393E-010	0.0032818	5
	59	93	1.266892	398892	-500118.3	1	639713.4	-51.4243	2.330888E-010	0.0032322	5
	60	97	0.999041	447264.6	-571708.1	1	725875.9	-51.96284	1.775215E-010	0.0033161	5
