EXPLAIN
TAG	EISPOT
TITLE	LABEL	Potentiostatic EIS	Test &Identifier
DATE	LABEL	10/10/2019	Date
TIME	LABEL	10:24:42	Time
NOTES	NOTES	1	&Notes...
	
PSTAT	PSTAT	REF600-11020	Potentiostat
VDC	POTEN	0.00000E+000	T	DC &Voltage (V)
FREQINIT	QUANT	1.00000E+006	Initial Fre&q. (Hz)
FREQFINAL	QUANT	1.00000E+000	Final Fre&q. (Hz)
PTSPERDEC	QUANT	1.00000E+001	Points/&decade
VAC	QUANT	2.50000E+001	AC &Voltage (mV rms)
AREA	QUANT	1.00000E-002	&Area (cm^2)
CONDIT	TWOPARAM	T	5.00000E+000	0.00000E+000	Conditionin&g	Time(s)	E(V)
DELAY	TWOPARAM	T	5.00000E+000	0.00000E+000	Init. De&lay	Time(s)	Stab.(mV/s)
SPEED	SELECTOR	1	&Optimize for:
ZGUESS	QUANT	1.00000E+004	E&stimated Z (ohms)
OCVCURVE	TABLE	19
	Pt	T	Vf	Vm	Ach	Over
	#	s	V vs. Ref.	V	V	bits
	0	0.258333	5.66484E-003	5.66484E-003	5.54133E-004	...........
	1	0.516667	5.66443E-003	5.64362E-003	5.53032E-004	...........
	2	0.775	5.66113E-003	5.58114E-003	5.47933E-004	...........
	3	1.03333	5.65181E-003	5.66236E-003	5.54366E-004	...........
	4	1.29167	5.64108E-003	5.70861E-003	5.49599E-004	...........
	5	1.55	5.64182E-003	5.72703E-003	5.57766E-004	...........
	6	1.80833	5.66076E-003	5.77442E-003	5.65232E-004	...........
	7	2.06667	5.69741E-003	6.05844E-003	5.67066E-004	...........
	8	2.325	5.76507E-003	6.40068E-003	5.63132E-004	...........
	9	2.58333	5.89290E-003	6.66573E-003	5.62599E-004	...........
	10	2.84167	6.09159E-003	6.78583E-003	5.62166E-004	...........
	11	3.1	6.32764E-003	6.80217E-003	5.53833E-004	...........
	12	3.35833	6.54226E-003	6.80181E-003	5.54233E-004	...........
	13	3.61667	6.69007E-003	6.67772E-003	5.58632E-004	...........
	14	3.875	6.75763E-003	6.67918E-003	5.53333E-004	...........
	15	4.13333	6.75960E-003	6.62481E-003	5.60166E-004	...........
	16	4.39167	6.72502E-003	6.58378E-003	5.54999E-004	...........
	17	4.65	6.67944E-003	6.57484E-003	5.48366E-004	...........
	18	4.90833	6.63691E-003	6.56987E-003	5.51933E-004	...........
EOC	QUANT	0.0066369	Open Circuit (V)
PSTATMODEL	IQUANT	4	Pstat Model
PSTATSECTION	LABEL	REF600-11020	Pstat Section
PSTATSERIALNO	LABEL	11020	Pstat Serial Number
CTRLMODE	IQUANT	1	Control Mode
IESTAB	IQUANT	0	I/E Stability
CASPEED	IQUANT	1	Control Amp Speed
CONVENTION	IQUANT	1	Current Convention
ICHRANGE	IQUANT	2	Ich Range
ICHRANGEMODE	TOGGLE	F	Ich Auto Range
ICHOFFSETENABLE	TOGGLE	T	Ich Offset Enable
ICHOFFSET	QUANT	0	Ich Offset (V)
ICHFILTER	IQUANT	3	Ich Filter
VCHRANGE	IQUANT	2	Vch Range
VCHRANGEMODE	TOGGLE	F	Vch Auto Range
VCHOFFSETENABLE	TOGGLE	T	Vch Offset Enable
VCHOFFSET	QUANT	0	Vch Offset (V)
VCHFILTER	IQUANT	3	Vch Filter
ACHRANGE	IQUANT	2	Ach Range
ACHOFFSETENABLE	TOGGLE	F	Ach Offset Enable
ACHOFFSET	QUANT	0	Ach Offset (V)
ACHFILTER	IQUANT	3	Ach Filter
IERANGELOWERLIMIT	IQUANT	1	I/E Range Lower Limit
IERANGEMODE	TOGGLE	F	I/E AutoRange
IERANGE	IQUANT	6	I/E Range
POSFEEDENABLE	TOGGLE	F	Positive Feedback IR Comp
POSFEEDRESISTANCE	QUANT	0	Positive Feedback Resistance (ohm)
ACHSELECT	IQUANT	0	Ach Select
CABLEID	IQUANT	14	Cable ID
DCCALDATE	LABEL	8/19/2019	DC Calibration Date
ACCALDATE	LABEL	8/19/2019	AC Calibration Date
THERMOSELECT	IQUANT	1	Thermo Select
FRAMEWORKVERSION	QUANT	6.33	Framework Version
INSTRUMENTVERSION	LABEL	3.50	Instrument Version
ZCURVE	TABLE
	Pt	Time	Freq	Zreal	Zimag	Zsig	Zmod	Zphz	Idc	Vdc	IERange
	#	s	Hz	ohm	ohm	V	ohm	°	A	V	#
	0	2	1000078	2676.163	-1824.433	1	3238.89	-34.28361	1.636986E-007	0.009503	8
	1	3	794390.6	3016.597	-1763.689	1	3494.346	-30.31319	-1.830409E-006	0.0090623	8
	2	5	630984.4	3336.157	-1647.606	1	3720.827	-26.28308	-1.078089E-007	0.0085436	8
	3	6	501234.4	3624.537	-1501.563	1	3923.259	-22.50311	3.232256E-006	0.0077631	8
	4	8	398109.4	3851.239	-1364.608	1	4085.853	-19.51074	-3.363584E-006	0.0090054	8
	5	9	316265.6	4062.435	-1229.578	1	4244.437	-16.8395	1.620382E-006	0.0080372	8
	6	10	251203.1	4186.52	-1089.29	1	4325.91	-14.58441	-1.443661E-006	0.0086342	8
	7	12	199546.9	4333.734	-940.7979	1	4434.676	-12.24813	1.230496E-006	0.0081086	8
	8	13	158578.1	4433.88	-853.3867	1	4515.258	-10.89447	-4.510733E-007	0.0083658	8
	9	15	125953.1	4524.067	-693.4727	1	4576.908	-8.714765	-1.888024E-008	0.0084251	7
	10	16	100078.1	4591.76	-605.6108	1	4631.525	-7.51342	-7.292407E-009	0.0083725	7
	11	17	79453.13	4645.87	-552.8351	1	4678.646	-6.786	-1.695151E-008	0.0082918	7
	12	19	63140.62	4693.123	-514.3463	1	4721.224	-6.254412	-4.481313E-008	0.0083511	7
	13	20	50203.12	4738.513	-485.1532	1	4763.285	-5.845865	-8.359657E-008	0.0084509	7
	14	21	39890.62	4781.1	-471.6533	1	4804.308	-5.633973	-1.84012E-009	0.0083512	7
	15	23	31640.63	4822.59	-465.2151	1	4844.977	-5.510036	-4.423493E-008	0.0083312	7
	16	24	25171.88	4863.583	-470.6013	1	4886.298	-5.526745	-1.919404E-008	0.0082778	7
	17	25	20015.62	4910.014	-490.8971	1	4934.492	-5.709388	6.871014E-008	0.0082067	7
	18	27	15890.62	4946.234	-514.7791	1	4972.95	-5.941665	-2.031294E-008	0.0082781	7
	19	28	12609.37	4985.514	-556.0123	1	5016.423	-6.363647	4.36739E-008	0.0081698	7
	20	30	10078.13	5025.407	-606.8801	1	5061.918	-6.885831	-1.532319E-008	0.0083704	7
	21	31	8015.625	5071.332	-681.7177	1	5116.947	-7.656134	4.767133E-008	0.0082577	7
	22	32	6328.125	5113.556	-776.6098	1	5172.193	-8.635675	-3.807628E-008	0.0083343	7
	23	34	5015.625	5160.863	-898.889	1	5238.56	-9.88033	9.477151E-008	0.0081138	7
	24	35	3984.375	5222.35	-1061.364	1	5329.112	-11.48804	-3.004341E-009	0.0083534	7
	25	36	3170.956	5269.413	-1244.667	1	5414.417	-13.29001	-1.19665E-008	0.0084595	7
	26	38	2527.573	5334.435	-1480.197	1	5535.99	-15.50825	-1.711409E-008	0.0083757	7
	27	39	1976.103	5417.957	-1797.001	1	5708.193	-18.34939	4.60258E-008	0.0082581	7
	28	41	1577.524	5494.565	-2155.505	1	5902.241	-21.41996	-5.785869E-008	0.0084907	7
	29	42	1265.625	5601.959	-2578.946	1	6167.083	-24.71969	-1.277401E-009	0.0083303	7
	30	43	998.264	5725.062	-3144.075	1	6531.581	-28.7746	1.4993E-007	0.0080847	7
	31	45	796.875	5863.784	-3805.339	1	6990.319	-32.9818	1.452137E-007	0.0080812	7
	32	46	627.7902	6053.967	-4663.616	1	7641.978	-37.60852	4.251369E-008	0.0081645	7
	33	47	505.5147	6245.959	-5628.479	1	8407.841	-42.02326	1.488657E-007	0.0080851	7
	34	49	397.9953	6517.251	-6932.914	1	9515.24	-46.7701	6.314776E-009	0.008327	7
	35	50	315.5048	6852.67	-8495.076	1	10914.46	-51.10814	1.994708E-009	0.0082613	6
	36	51	252.4038	7258.753	-10336.57	1	12630.69	-54.92194	9.617445E-010	0.0082598	6
	37	53	198.6229	7822.9	-12758.87	1	14966.18	-58.48612	8.732897E-010	0.00826	6
	38	54	158.3615	8518.553	-15569.58	1	17747.6	-61.31569	1.498521E-009	0.0082555	6
	39	56	125.558	9451.669	-19060.94	1	21275.65	-63.62476	1.244541E-009	0.0082584	6
	40	57	100.4464	10620.86	-23110.83	1	25434.48	-65.31828	7.78094E-010	0.0082603	6
	41	58	79.00281	12394.71	-28404.96	1	30991.46	-66.42561	1.027007E-010	0.0082569	6
	42	60	63.3446	14699.22	-34559.85	1	37555.96	-66.95866	5.748388E-010	0.0082606	6
	43	61	49.86702	17139.24	-41894.57	1	45264.87	-67.75033	8.598816E-013	0.0082571	6
	44	63	39.72458	21155.92	-50285.56	1	54554.66	-67.18275	3.147653E-010	0.0082606	6
	45	64	31.6723	26229.75	-59801.3	1	65300.8	-66.31702	8.097793E-010	0.0082529	6
	46	65	24.93351	32696.54	-71730.2	1	78830.74	-65.49524	1.646732E-010	0.0082602	6
	47	67	19.86229	40684.82	-84483.46	1	93769.45	-64.28586	9.56351E-010	0.0082618	6
	48	68	15.83615	49849.98	-98344.3	1	110257	-63.11989	-7.31333E-010	0.0082642	5
	49	69	12.40079	64281.86	-114638.7	1	131431.3	-60.71915	1.989E-009	0.0082631	5
	50	71	9.93114	77471.55	-131468.9	1	152597.2	-59.49015	3.760202E-010	0.0082663	5
	51	73	7.944915	92496.16	-148145.2	1	174649.7	-58.02092	1.28421E-009	0.0082687	5
	52	74	6.317385	111204.1	-168547.7	1	201927.4	-56.58405	1.381725E-011	0.0082829	5
	53	76	5.008013	131656.8	-190576.9	1	231631.3	-55.36201	1.159759E-010	0.0082598	5
	54	79	3.945707	154013.7	-215302.6	1	264717.7	-54.42249	5.656994E-010	0.0082697	5
	55	81	3.158693	176921.4	-242158	1	299902.8	-53.84801	-1.95085E-010	0.0082563	5
	56	85	2.504006	202417.5	-274248.8	1	340859.5	-53.56971	5.815435E-010	0.0082728	5
	57	88	1.998082	229367.3	-310486.5	1	386019.7	-53.54541	3.676232E-010	0.0082857	5
	58	91	1.584686	259982.4	-353611.1	1	438898.3	-53.67588	1.029507E-010	0.0082186	5
	59	94	1.266892	291291.2	-403659.1	1	497786.3	-54.18478	1.212184E-010	0.0082679	5
	60	99	0.999041	330040.8	-468303.9	1	572918.4	-54.82544	-2.390142E-010	0.0082454	5
