EXPLAIN
TAG	EISPOT
TITLE	LABEL	Potentiostatic IDE	Test &Identifier
DATE	LABEL	9/6/2019	Date
TIME	LABEL	7:28:49	Time
NOTES	NOTES	1	&Notes...
	
PSTAT	PSTAT	REF600-11020	Potentiostat
VDC	POTEN	0.00000E+000	T	DC &Voltage (V)
FREQINIT	QUANT	1.00000E+006	Initial Fre&q. (Hz)
FREQFINAL	QUANT	1.00000E+000	Final Fre&q. (Hz)
PTSPERDEC	QUANT	1.00000E+001	Points/&decade
VAC	QUANT	2.50000E+001	AC &Voltage (mV rms)
AREA	QUANT	1.00000E-002	&Area (cm^2)
CONDIT	TWOPARAM	T	5.00000E+000	0.00000E+000	Conditionin&g	Time(s)	E(V)
DELAY	TWOPARAM	T	5.00000E+000	0.00000E+000	Init. De&lay	Time(s)	Stab.(mV/s)
SPEED	SELECTOR	1	&Optimize for:
ZGUESS	QUANT	1.00000E+007	E&stimated Z (ohms)
OCVCURVE	TABLE	19
	Pt	T	Vf	Vm	Ach	Over
	#	s	V vs. Ref.	V	V	bits
	0	0.258333	3.78292E-003	3.78292E-003	5.67232E-004	...........
	1	0.516667	3.78068E-003	3.66592E-003	5.65499E-004	...........
	2	0.775	3.76716E-003	3.56543E-003	5.63499E-004	...........
	3	1.03333	3.72974E-003	3.47880E-003	5.65832E-004	...........
	4	1.29167	3.66494E-003	3.39796E-003	5.72732E-004	...........
	5	1.55	3.58237E-003	3.32607E-003	5.70066E-004	...........
	6	1.80833	3.49541E-003	3.26240E-003	5.65366E-004	...........
	7	2.06667	3.41290E-003	3.20261E-003	5.62432E-004	...........
	8	2.325	3.33825E-003	3.15118E-003	5.66966E-004	...........
	9	2.58333	3.27185E-003	3.11681E-003	5.72266E-004	...........
	10	2.84167	3.21371E-003	3.07875E-003	5.69132E-004	...........
	11	3.1	3.16296E-003	3.00217E-003	5.66999E-004	...........
	12	3.35833	3.11564E-003	2.95818E-003	5.64299E-004	...........
	13	3.61667	3.06712E-003	2.92150E-003	5.68832E-004	...........
	14	3.875	3.01731E-003	2.88341E-003	5.67866E-004	...........
	15	4.13333	2.96965E-003	2.84332E-003	5.66432E-004	...........
	16	4.39167	2.92594E-003	2.80294E-003	5.63266E-004	...........
	17	4.65	2.88521E-003	2.76582E-003	5.63966E-004	...........
	18	4.90833	2.84585E-003	2.72734E-003	5.65432E-004	...........
EOC	QUANT	0.0028458	Open Circuit (V)
PSTATMODEL	IQUANT	4	Pstat Model
PSTATSECTION	LABEL	REF600-11020	Pstat Section
PSTATSERIALNO	LABEL	11020	Pstat Serial Number
CTRLMODE	IQUANT	1	Control Mode
IESTAB	IQUANT	0	I/E Stability
CASPEED	IQUANT	1	Control Amp Speed
CONVENTION	IQUANT	1	Current Convention
ICHRANGE	IQUANT	2	Ich Range
ICHRANGEMODE	TOGGLE	F	Ich Auto Range
ICHOFFSETENABLE	TOGGLE	T	Ich Offset Enable
ICHOFFSET	QUANT	0	Ich Offset (V)
ICHFILTER	IQUANT	3	Ich Filter
VCHRANGE	IQUANT	2	Vch Range
VCHRANGEMODE	TOGGLE	F	Vch Auto Range
VCHOFFSETENABLE	TOGGLE	T	Vch Offset Enable
VCHOFFSET	QUANT	0	Vch Offset (V)
VCHFILTER	IQUANT	3	Vch Filter
ACHRANGE	IQUANT	2	Ach Range
ACHOFFSETENABLE	TOGGLE	F	Ach Offset Enable
ACHOFFSET	QUANT	0	Ach Offset (V)
ACHFILTER	IQUANT	3	Ach Filter
IERANGELOWERLIMIT	IQUANT	1	I/E Range Lower Limit
IERANGEMODE	TOGGLE	F	I/E AutoRange
IERANGE	IQUANT	2	I/E Range
POSFEEDENABLE	TOGGLE	F	Positive Feedback IR Comp
POSFEEDRESISTANCE	QUANT	0	Positive Feedback Resistance (ohm)
ACHSELECT	IQUANT	0	Ach Select
CABLEID	IQUANT	14	Cable ID
DCCALDATE	LABEL	8/19/2019	DC Calibration Date
ACCALDATE	LABEL	8/19/2019	AC Calibration Date
THERMOSELECT	IQUANT	1	Thermo Select
FRAMEWORKVERSION	QUANT	6.33	Framework Version
INSTRUMENTVERSION	LABEL	3.50	Instrument Version
ZCURVE	TABLE
	Pt	Time	Freq	Zreal	Zimag	Zsig	Zmod	Zphz	Idc	Vdc	IERange
	#	s	Hz	ohm	ohm	V	ohm	°	A	V	#
	0	1	1000078	2503.841	-1194.786	1	2774.299	-25.50961	1.858083E-007	0.0053842	8
	1	3	794390.6	2705.045	-1046.758	1	2900.512	-21.1547	-7.643546E-007	0.0049906	8
	2	4	630984.4	2850.117	-911.163	1	2992.22	-17.72873	-2.786763E-007	0.0047168	8
	3	6	501234.4	2953.395	-772.8644	1	3052.845	-14.6647	-2.929228E-006	0.0051996	8
	4	7	398109.4	3031.787	-651.7144	1	3101.042	-12.13172	-4.139844E-007	0.0046936	8
	5	8	316265.6	3099.521	-550.5408	1	3148.036	-10.0719	1.29609E-006	0.0041999	8
	6	10	251203.1	3138.567	-477.9796	1	3174.754	-8.659171	2.750989E-007	0.0043598	8
	7	11	199546.9	3177.64	-403.4556	1	3203.151	-7.23596	3.055941E-007	0.004368	8
	8	12	158578.1	3196.377	-344.4048	1	3214.878	-6.149808	-5.193585E-007	0.0045711	8
	9	14	125953.1	3231.916	-286.9661	1	3244.631	-5.074062	-2.940778E-007	0.0048603	7
	10	15	100078.1	3249.588	-258.1179	1	3259.823	-4.541523	-6.946363E-010	0.0043705	7
	11	16	79453.13	3267.729	-243.4784	1	3276.788	-4.261232	4.315039E-008	0.0043218	7
	12	18	63140.62	3287.94	-234.8607	1	3296.318	-4.085753	4.63024E-008	0.0043016	7
	13	19	50203.12	3308.269	-230.0343	1	3316.256	-3.977554	-1.163364E-008	0.0043899	7
	14	20	39890.62	3328.085	-230.9594	1	3336.089	-3.969795	4.992899E-010	0.0043565	7
	15	21	31640.63	3348.197	-235.8686	1	3356.495	-4.029626	-1.276505E-008	0.0043912	7
	16	23	25171.88	3368.848	-247.0249	1	3377.893	-4.193777	-3.531963E-008	0.0044443	7
	17	24	20015.62	3389.339	-263.2844	1	3399.55	-4.441825	-2.120367E-008	0.0044647	7
	18	25	15890.62	3411.201	-287.0583	1	3423.258	-4.810204	-3.001583E-008	0.0044497	7
	19	27	12609.37	3433.467	-317.2945	1	3448.097	-5.279838	-2.392438E-008	0.0044116	7
	20	28	10078.13	3456.417	-355.5172	1	3474.653	-5.872628	-1.255651E-009	0.0044032	7
	21	29	8015.625	3480.55	-405.3528	1	3504.074	-6.642872	-1.298695E-008	0.0043872	7
	22	31	6328.125	3507.021	-470.9557	1	3538.502	-7.648458	-2.336023E-008	0.0044094	7
	23	32	5015.625	3535.237	-551.1351	1	3577.939	-8.860951	-2.469948E-008	0.0044205	7
	24	33	3984.375	3567.809	-650.8007	1	3626.679	-10.33762	-1.525287E-008	0.0044706	7
	25	35	3170.956	3604.741	-772.8502	1	3686.659	-12.10092	-2.648722E-008	0.004404	7
	26	36	2527.573	3646.485	-921.6517	1	3761.156	-14.18448	-2.611061E-008	0.0044038	7
	27	37	1976.103	3699.707	-1122.027	1	3866.106	-16.87121	-1.441604E-009	0.0044008	7
	28	39	1577.524	3758.163	-1346.052	1	3991.948	-19.70588	-2.288671E-008	0.0044045	7
	29	40	1265.625	3826.426	-1612.565	1	4152.337	-22.85195	2.593307E-009	0.0043545	7
	30	41	998.264	3914.697	-1965.773	1	4380.538	-26.66361	-4.848687E-009	0.0044014	7
	31	43	796.875	4012.842	-2371.236	1	4661.079	-30.57934	3.565097E-008	0.0043837	7
	32	44	627.7902	4141.185	-2894.83	1	5052.668	-34.95487	-1.380303E-008	0.0044698	7
	33	45	505.5147	4277.838	-3473.588	1	5510.509	-39.07646	-1.376361E-008	0.0044679	7
	34	47	397.9953	4458.28	-4245.329	1	6156.222	-43.59842	6.116617E-009	0.0043971	7
	35	48	315.5048	4664.732	-5166.699	1	6960.927	-47.92283	6.060625E-009	0.004397	7
	36	49	252.4038	4900.434	-6246.541	1	7939.366	-51.88569	5.473149E-009	0.0043921	7
	37	51	198.6229	5202.191	-7669.855	1	9267.657	-55.85235	4.892588E-009	0.0043984	7
	38	52	158.3615	5547.198	-9324.644	1	10849.9	-59.25174	1.277922E-009	0.0043365	6
	39	53	125.558	5975.768	-11406.95	1	12877.44	-62.35128	1.417988E-009	0.0043368	6
	40	55	100.4464	6484.079	-13857.69	1	15299.64	-64.92488	1.005611E-009	0.0043356	6
	41	56	79.00281	7164.792	-17110.09	1	18549.65	-67.27867	1.376597E-009	0.0043339	6
	42	57	63.3446	7992.307	-20784.25	1	22267.96	-68.96642	1.027115E-009	0.0043337	6
	43	59	49.86702	9054.076	-25604.56	1	27158.24	-70.5258	8.615199E-010	0.0043346	6
	44	60	39.72458	10433.76	-31277.72	1	32972.1	-71.55212	9.712969E-010	0.0043454	6
	45	62	31.6723	12180.85	-38096.1	1	39996.07	-72.26884	1.077223E-009	0.0043392	6
	46	63	24.93351	14606.62	-46873.67	1	49096.78	-72.69209	7.351714E-010	0.0043382	6
	47	64	19.86229	17629.38	-56988.38	1	59652.92	-72.81053	5.993741E-010	0.0043379	6
	48	66	15.83615	21510.12	-68982.25	1	72258.13	-72.68142	9.010313E-010	0.0043418	6
	49	67	12.40079	27177.47	-84567.26	1	88827	-72.1841	2.127568E-009	0.0043393	6
	50	68	9.93114	33682.62	-101517.8	1	106959.8	-71.64467	8.956424E-010	0.0043444	5
	51	70	7.944915	41982.21	-121486	1	128535.4	-70.93626	5.113027E-011	0.0043457	5
	52	71	6.317385	52995	-145367.3	1	154726	-69.97021	2.667823E-010	0.0043608	5
	53	73	5.008013	67005.29	-173692.3	1	186168.5	-68.90488	2.476475E-011	0.0043411	5
	54	76	3.945707	85074.62	-206755.7	1	223574.6	-67.6341	6.649138E-010	0.0043477	5
	55	78	3.158693	106015.8	-243065.8	1	265179.8	-66.43505	-1.10719E-011	0.0043391	5
	56	81	2.504006	132783	-284905.2	1	314328.3	-65.01163	6.877018E-010	0.0043392	5
	57	84	1.998082	163467.1	-330965.9	1	369134	-63.71481	-7.894024E-011	0.0043761	5
	58	87	1.584686	201426.9	-384048.8	1	433666.1	-62.32378	3.088226E-010	0.0043941	5
	59	91	1.266892	242913.3	-440933.2	1	503417.3	-61.14931	-1.768162E-010	0.0043627	5
	60	95	0.999041	293354.6	-507301.3	1	586013.3	-59.96071	4.77787E-010	0.0043619	5
