EXPLAIN
TAG	EISPOT
TITLE	LABEL	Potentiostatic IDE	Test &Identifier
DATE	LABEL	9/10/2019	Date
TIME	LABEL	8:46:47	Time
NOTES	NOTES	1	&Notes...
	
PSTAT	PSTAT	REF600-11020	Potentiostat
VDC	POTEN	0.00000E+000	T	DC &Voltage (V)
FREQINIT	QUANT	1.00000E+006	Initial Fre&q. (Hz)
FREQFINAL	QUANT	1.00000E+000	Final Fre&q. (Hz)
PTSPERDEC	QUANT	1.00000E+001	Points/&decade
VAC	QUANT	2.50000E+001	AC &Voltage (mV rms)
AREA	QUANT	1.00000E-002	&Area (cm^2)
CONDIT	TWOPARAM	T	5.00000E+000	0.00000E+000	Conditionin&g	Time(s)	E(V)
DELAY	TWOPARAM	T	5.00000E+000	0.00000E+000	Init. De&lay	Time(s)	Stab.(mV/s)
SPEED	SELECTOR	1	&Optimize for:
ZGUESS	QUANT	1.00000E+007	E&stimated Z (ohms)
OCVCURVE	TABLE	19
	Pt	T	Vf	Vm	Ach	Over
	#	s	V vs. Ref.	V	V	bits
	0	0.258333	5.67942E-003	5.67942E-003	5.68666E-004	...........
	1	0.516667	5.67762E-003	5.58539E-003	5.65199E-004	...........
	2	0.775	5.66674E-003	5.50419E-003	5.66232E-004	...........
	3	1.03333	5.63671E-003	5.43882E-003	5.66932E-004	...........
	4	1.29167	5.58469E-003	5.35991E-003	5.62732E-004	...........
	5	1.55	5.51849E-003	5.33993E-003	5.63966E-004	...........
	6	1.80833	5.45086E-003	5.31513E-003	5.68999E-004	...........
	7	2.06667	5.39297E-003	5.29010E-003	5.65366E-004	...........
	8	2.325	5.34922E-003	5.26288E-003	5.67499E-004	...........
	9	2.58333	5.31667E-003	5.23947E-003	5.68332E-004	...........
	10	2.84167	5.29004E-003	5.22173E-003	5.65499E-004	...........
	11	3.1	5.26618E-003	5.20724E-003	5.67299E-004	...........
	12	3.35833	5.24456E-003	5.18996E-003	5.62666E-004	...........
	13	3.61667	5.22531E-003	5.17622E-003	5.68466E-004	...........
	14	3.875	5.20807E-003	5.16086E-003	5.64232E-004	...........
	15	4.13333	5.19217E-003	5.14709E-003	5.63166E-004	...........
	16	4.39167	5.17715E-003	5.13669E-003	5.64566E-004	...........
	17	4.65	5.16295E-003	5.12453E-003	5.62632E-004	...........
	18	4.90833	5.14977E-003	5.11637E-003	5.66099E-004	...........
EOC	QUANT	0.0051498	Open Circuit (V)
PSTATMODEL	IQUANT	4	Pstat Model
PSTATSECTION	LABEL	REF600-11020	Pstat Section
PSTATSERIALNO	LABEL	11020	Pstat Serial Number
CTRLMODE	IQUANT	1	Control Mode
IESTAB	IQUANT	0	I/E Stability
CASPEED	IQUANT	1	Control Amp Speed
CONVENTION	IQUANT	1	Current Convention
ICHRANGE	IQUANT	2	Ich Range
ICHRANGEMODE	TOGGLE	F	Ich Auto Range
ICHOFFSETENABLE	TOGGLE	T	Ich Offset Enable
ICHOFFSET	QUANT	0	Ich Offset (V)
ICHFILTER	IQUANT	3	Ich Filter
VCHRANGE	IQUANT	2	Vch Range
VCHRANGEMODE	TOGGLE	F	Vch Auto Range
VCHOFFSETENABLE	TOGGLE	T	Vch Offset Enable
VCHOFFSET	QUANT	0	Vch Offset (V)
VCHFILTER	IQUANT	3	Vch Filter
ACHRANGE	IQUANT	2	Ach Range
ACHOFFSETENABLE	TOGGLE	F	Ach Offset Enable
ACHOFFSET	QUANT	0	Ach Offset (V)
ACHFILTER	IQUANT	3	Ach Filter
IERANGELOWERLIMIT	IQUANT	1	I/E Range Lower Limit
IERANGEMODE	TOGGLE	F	I/E AutoRange
IERANGE	IQUANT	2	I/E Range
POSFEEDENABLE	TOGGLE	F	Positive Feedback IR Comp
POSFEEDRESISTANCE	QUANT	0	Positive Feedback Resistance (ohm)
ACHSELECT	IQUANT	0	Ach Select
CABLEID	IQUANT	14	Cable ID
DCCALDATE	LABEL	8/19/2019	DC Calibration Date
ACCALDATE	LABEL	8/19/2019	AC Calibration Date
THERMOSELECT	IQUANT	1	Thermo Select
FRAMEWORKVERSION	QUANT	6.33	Framework Version
INSTRUMENTVERSION	LABEL	3.50	Instrument Version
ZCURVE	TABLE
	Pt	Time	Freq	Zreal	Zimag	Zsig	Zmod	Zphz	Idc	Vdc	IERange
	#	s	Hz	ohm	ohm	V	ohm	°	A	V	#
	0	2	1000078	2667.641	-1369.817	1	2998.784	-27.18022	7.612578E-006	0.0063781	8
	1	4	794390.6	2897.623	-1249.34	1	3155.482	-23.32379	-3.335772E-006	0.0071839	8
	2	5	630984.4	3099.467	-1107.143	1	3291.271	-19.65695	-3.252693E-006	0.0078802	8
	3	6	501234.4	3242.28	-959.248	1	3381.203	-16.48117	-1.771101E-007	0.0072775	8
	4	8	398109.4	3350.789	-834.1752	1	3453.061	-13.97955	-1.322123E-007	0.0070249	8
	5	9	316265.6	3439.792	-706.6121	1	3511.62	-11.60838	8.363357E-008	0.0068177	8
	6	10	251203.1	3503.096	-620.6176	1	3557.646	-10.04643	-1.199341E-006	0.0072456	8
	7	12	199546.9	3552.745	-551.0227	1	3595.223	-8.8162	2.37926E-006	0.0064894	8
	8	13	158578.1	3590.695	-485.0628	1	3623.31	-7.693447	-1.57488E-007	0.006975	8
	9	14	125953.1	3643.493	-413.4369	1	3666.875	-6.473814	-5.475584E-007	0.0083558	7
	10	16	100078.1	3670.533	-386.7101	1	3690.847	-6.014228	-2.811558E-008	0.0068661	7
	11	17	79453.13	3704.332	-379.2828	1	3723.699	-5.846084	-5.726578E-009	0.0068157	7
	12	18	63140.62	3736.145	-378.6354	1	3755.282	-5.786819	-4.257595E-009	0.0068103	7
	13	20	50203.12	3771.352	-386.8148	1	3791.137	-5.856156	-1.093197E-008	0.0068991	7
	14	21	39890.62	3805.352	-403.9727	1	3826.734	-6.059772	9.123038E-008	0.0067197	7
	15	22	31640.63	3849.211	-427.3371	1	3872.86	-6.335001	6.350021E-009	0.0068321	7
	16	24	25171.88	3891.086	-460.1261	1	3918.197	-6.743985	-4.482719E-008	0.0069013	7
	17	25	20015.62	3937.659	-501.0338	1	3969.407	-7.251437	-7.408045E-009	0.0068383	7
	18	26	15890.62	3988.18	-553.1611	1	4026.359	-7.896553	5.352837E-008	0.0067568	7
	19	28	12609.37	4045.099	-614.7109	1	4091.539	-8.640807	-1.849394E-008	0.0068289	7
	20	29	10078.13	4104.061	-692.5735	1	4162.087	-9.5786	8.998962E-008	0.0067184	7
	21	31	8015.625	4168.857	-776.6769	1	4240.589	-10.55347	3.083155E-008	0.0068152	7
	22	32	6328.125	4245.413	-884.2776	1	4336.528	-11.76592	-9.958416E-009	0.0068972	7
	23	33	5015.625	4327.36	-1010.221	1	4443.714	-13.14035	3.352094E-008	0.0068115	7
	24	35	3984.375	4416.376	-1162.394	1	4566.786	-14.74587	-2.703102E-008	0.0068475	7
	25	36	3170.956	4511.496	-1341.068	1	4706.597	-16.55488	-1.204775E-008	0.0068892	7
	26	37	2527.573	4618.796	-1553.169	1	4872.947	-18.58632	4.52952E-009	0.0069132	7
	27	39	1976.103	4744.636	-1831.057	1	5085.7	-21.10268	-5.023577E-008	0.0069259	7
	28	40	1577.524	4875.673	-2139.428	1	5324.41	-23.6917	-2.606997E-008	0.0068405	7
	29	41	1265.625	5014.781	-2503.061	1	5604.761	-26.52546	7.514694E-008	0.006786	7
	30	43	998.264	5184.454	-2970.944	1	5975.372	-29.81481	-4.682488E-008	0.0068924	7
	31	44	796.875	5359.114	-3513.893	1	6408.397	-33.25227	-5.894323E-008	0.006917	7
	32	45	627.7902	5565.021	-4217.834	1	6982.806	-37.15917	-1.233426E-008	0.0068744	7
	33	47	505.5147	5776.739	-4999.219	1	7639.562	-40.87308	9.089143E-008	0.0067061	7
	34	48	397.9953	6024.53	-6051.193	1	8538.847	-45.12651	5.773384E-009	0.006865	7
	35	49	315.5048	6302.211	-7322.933	1	9661.43	-49.28428	5.055456E-009	0.0068671	7
	36	51	252.4038	6611.024	-8833.269	1	11033.23	-53.18796	6.898124E-010	0.0067994	6
	37	52	198.6229	6999.571	-10844.42	1	12907.19	-57.15964	1.162755E-009	0.006799	6
	38	53	158.3615	7447.821	-13204.62	1	15160.21	-60.57563	5.787673E-010	0.0068003	6
	39	55	125.558	8015.012	-16191.56	1	18066.74	-63.66404	9.507651E-010	0.0068036	6
	40	56	100.4464	8709.604	-19734.11	1	21570.63	-66.18584	5.175884E-010	0.0068	6
	41	57	79.00281	9693.62	-24412.9	1	26267.02	-68.34348	5.72818E-010	0.0067993	6
	42	59	63.3446	10712.21	-29769.21	1	31637.9	-70.20914	6.339109E-010	0.0068021	6
	43	60	49.86702	12525	-36637.22	1	38719.01	-71.12621	9.251948E-010	0.006798	6
	44	61	39.72458	14519.14	-44868.76	1	47159.42	-72.06887	7.581809E-010	0.0068015	6
	45	63	31.6723	17308.55	-54694.3	1	57367.7	-72.43951	2.590394E-010	0.0068017	6
	46	64	24.93351	21043.44	-67234.99	1	70451.19	-72.62075	8.720632E-010	0.0067924	6
	47	65	19.86229	25815.69	-81488.78	1	85480.23	-72.42178	1.34265E-009	0.0068056	6
	48	67	15.83615	32473.05	-98586.3	1	103796.7	-71.76878	-3.61396E-010	0.0067992	6
	49	68	12.40079	40666.14	-120373	1	127056.6	-71.33326	7.071818E-010	0.0068051	5
	50	70	9.93114	51084.98	-143440.7	1	152265.9	-70.39715	5.662883E-010	0.0068096	5
	51	71	7.944915	64576.35	-170119.7	1	181963.7	-69.21355	4.53268E-010	0.0067993	5
	52	73	6.317385	81301.45	-201863.1	1	217620.4	-68.06262	7.504801E-010	0.0068	5
	53	75	5.008013	102644.2	-238971.7	1	260083.3	-66.75529	2.370074E-010	0.0068057	5
	54	77	3.945707	129194.5	-281964.7	1	310153.7	-65.38305	7.748265E-011	0.0067995	5
	55	80	3.158693	158922	-327104.7	1	363667	-64.08746	6.734815E-011	0.0067904	5
	56	83	2.504006	195335.6	-380270.7	1	427506.5	-62.81156	3.839643E-010	0.0068143	5
	57	86	1.998082	236834.1	-438802.8	1	498636.4	-61.64303	4.36551E-010	0.0068341	5
	58	89	1.584686	285393.6	-504964.4	1	580033.2	-60.52592	3.04131E-010	0.0067904	5
	59	93	1.266892	341620.5	-579538.4	1	672732.8	-59.48192	2.134627E-010	0.0068367	5
	60	97	0.999041	407843.1	-666059	1	781006.1	-58.51991	1.595056E-010	0.0067645	5
