EXPLAIN
TAG	EISPOT
TITLE	LABEL	Potentiostatic EIS	Test &Identifier
DATE	LABEL	10/8/2019	Date
TIME	LABEL	10:27:25	Time
NOTES	NOTES	2	&Notes...
	
	
PSTAT	PSTAT	REF600-11020	Potentiostat
VDC	POTEN	0.00000E+000	T	DC &Voltage (V)
FREQINIT	QUANT	1.00000E+006	Initial Fre&q. (Hz)
FREQFINAL	QUANT	1.00000E+000	Final Fre&q. (Hz)
PTSPERDEC	QUANT	1.00000E+001	Points/&decade
VAC	QUANT	2.50000E+001	AC &Voltage (mV rms)
AREA	QUANT	1.00000E-002	&Area (cm^2)
CONDIT	TWOPARAM	T	5.00000E+000	0.00000E+000	Conditionin&g	Time(s)	E(V)
DELAY	TWOPARAM	T	5.00000E+000	0.00000E+000	Init. De&lay	Time(s)	Stab.(mV/s)
SPEED	SELECTOR	1	&Optimize for:
ZGUESS	QUANT	1.00000E+004	E&stimated Z (ohms)
OCVCURVE	TABLE	19
	Pt	T	Vf	Vm	Ach	Over
	#	s	V vs. Ref.	V	V	bits
	0	0.258333	2.50964E-003	2.50964E-003	5.58466E-004	...........
	1	0.516667	2.50362E-003	2.19456E-003	5.62199E-004	...........
	2	0.775	2.46703E-003	1.91525E-003	5.57732E-004	...........
	3	1.03333	2.36503E-003	1.66192E-003	5.59566E-004	...........
	4	1.29167	2.18654E-003	1.44018E-003	5.62366E-004	...........
	5	1.55	1.95665E-003	1.23077E-003	5.63232E-004	...........
	6	1.80833	1.71218E-003	1.04356E-003	5.68866E-004	...........
	7	2.06667	1.47801E-003	8.67688E-004	5.62399E-004	...........
	8	2.325	1.26344E-003	7.05454E-004	5.58332E-004	...........
	9	2.58333	1.06855E-003	5.54338E-004	5.66266E-004	...........
	10	2.84167	8.90325E-004	4.11399E-004	5.66499E-004	...........
	11	3.1	7.25736E-004	2.79711E-004	5.65099E-004	...........
	12	3.35833	5.72490E-004	1.48214E-004	5.68232E-004	...........
	13	3.61667	4.28772E-004	2.98625E-005	5.66732E-004	...........
	14	3.875	2.93078E-004	-8.95654E-005	5.67466E-004	...........
	15	4.13333	1.64318E-004	-1.97053E-004	5.67999E-004	...........
	16	4.39167	4.18356E-005	-3.03831E-004	5.59566E-004	...........
	17	4.65	-7.47763E-005	-4.04729E-004	5.61966E-004	...........
	18	4.90833	-1.85950E-004	-5.02307E-004	5.66866E-004	...........
EOC	QUANT	-0.000186	Open Circuit (V)
PSTATMODEL	IQUANT	4	Pstat Model
PSTATSECTION	LABEL	REF600-11020	Pstat Section
PSTATSERIALNO	LABEL	11020	Pstat Serial Number
CTRLMODE	IQUANT	1	Control Mode
IESTAB	IQUANT	0	I/E Stability
CASPEED	IQUANT	1	Control Amp Speed
CONVENTION	IQUANT	1	Current Convention
ICHRANGE	IQUANT	2	Ich Range
ICHRANGEMODE	TOGGLE	F	Ich Auto Range
ICHOFFSETENABLE	TOGGLE	T	Ich Offset Enable
ICHOFFSET	QUANT	0	Ich Offset (V)
ICHFILTER	IQUANT	3	Ich Filter
VCHRANGE	IQUANT	2	Vch Range
VCHRANGEMODE	TOGGLE	F	Vch Auto Range
VCHOFFSETENABLE	TOGGLE	T	Vch Offset Enable
VCHOFFSET	QUANT	0	Vch Offset (V)
VCHFILTER	IQUANT	3	Vch Filter
ACHRANGE	IQUANT	2	Ach Range
ACHOFFSETENABLE	TOGGLE	F	Ach Offset Enable
ACHOFFSET	QUANT	0	Ach Offset (V)
ACHFILTER	IQUANT	3	Ach Filter
IERANGELOWERLIMIT	IQUANT	1	I/E Range Lower Limit
IERANGEMODE	TOGGLE	F	I/E AutoRange
IERANGE	IQUANT	4	I/E Range
POSFEEDENABLE	TOGGLE	F	Positive Feedback IR Comp
POSFEEDRESISTANCE	QUANT	0	Positive Feedback Resistance (ohm)
ACHSELECT	IQUANT	0	Ach Select
CABLEID	IQUANT	14	Cable ID
DCCALDATE	LABEL	8/19/2019	DC Calibration Date
ACCALDATE	LABEL	8/19/2019	AC Calibration Date
THERMOSELECT	IQUANT	1	Thermo Select
FRAMEWORKVERSION	QUANT	6.33	Framework Version
INSTRUMENTVERSION	LABEL	3.50	Instrument Version
ZCURVE	TABLE
	Pt	Time	Freq	Zreal	Zimag	Zsig	Zmod	Zphz	Idc	Vdc	IERange
	#	s	Hz	ohm	ohm	V	ohm	°	A	V	#
	0	2	1000078	2125.904	-908.0112	1	2311.699	-23.12819	2.749788E-006	0.0016404	8
	1	3	794390.6	2266.002	-842.2145	1	2417.455	-20.3888	1.092294E-006	0.0008965	8
	2	5	630984.4	2385.136	-759.2563	1	2503.067	-17.65774	-3.735092E-007	0.0015898	8
	3	6	501234.4	2493.578	-695.1838	1	2588.67	-15.57792	5.069373E-006	0.0005074	8
	4	7	398109.4	2573.523	-620.5258	1	2647.276	-13.55635	-2.862285E-006	0.0017973	8
	5	9	316265.6	2639.877	-561.8972	1	2699.014	-12.01607	4.945194E-006	0.0004918	8
	6	10	251203.1	2691.407	-518.5253	1	2740.901	-10.90497	-1.240324E-006	0.0016735	8
	7	12	199546.9	2739.152	-474.1486	1	2779.887	-9.82061	-3.144185E-006	0.0017609	8
	8	13	158578.1	2787.51	-453.4031	1	2824.144	-9.238551	-9.816832E-007	0.0015298	8
	9	14	125953.1	2842.05	-400.3988	1	2870.116	-8.019268	-6.538065E-007	0.0024174	7
	10	16	100078.1	2885.882	-405.9228	1	2914.29	-8.006592	3.432421E-008	0.0012477	7
	11	17	79453.13	2926.92	-421.9969	1	2957.185	-8.204246	1.460113E-007	0.0010537	7
	12	18	63140.62	2974.796	-442.561	1	3007.536	-8.461841	-1.936746E-008	0.001248	7
	13	20	50203.12	3024.371	-469.5808	1	3060.609	-8.825593	3.570771E-010	0.001276	7
	14	21	39890.62	3078.743	-501.8391	1	3119.375	-9.257866	-8.318245E-008	0.0014129	7
	15	23	31640.63	3138.793	-541.6091	1	3185.178	-9.79017	-3.480241E-008	0.0012835	7
	16	24	25171.88	3202.514	-586.763	1	3255.824	-10.38255	-3.327564E-008	0.001274	7
	17	25	20015.62	3274.469	-640.2376	1	3336.473	-11.06314	-3.629796E-008	0.0013424	7
	18	27	15890.62	3346.03	-699.9982	1	3418.467	-11.81602	-6.986031E-008	0.0013772	7
	19	28	12609.37	3423.909	-769.6634	1	3509.349	-12.66898	-3.147069E-008	0.0012548	7
	20	29	10078.13	3506.05	-849.3159	1	3607.454	-13.61718	9.064437E-008	0.0012013	7
	21	31	8015.625	3596.377	-947.6209	1	3719.128	-14.76153	-8.541011E-009	0.0012165	7
	22	32	6328.125	3693.659	-1063.834	1	3843.808	-16.06726	-1.45981E-008	0.001225	7
	23	33	5015.625	3798.534	-1199.951	1	3983.559	-17.53124	3.815912E-008	0.0012137	7
	24	35	3984.375	3909.697	-1360.74	1	4139.728	-19.19006	-3.393665E-008	0.0012651	7
	25	36	3170.956	4026.928	-1547.551	1	4314.054	-21.02179	-8.163224E-008	0.0013906	7
	26	37	2527.573	4145.968	-1769.76	1	4507.894	-23.11584	1.629126E-009	0.0012529	7
	27	39	1976.103	4280.819	-2065.952	1	4753.27	-25.76227	-4.573359E-008	0.0012819	7
	28	40	1577.524	4411.001	-2403.426	1	5023.285	-28.58468	8.94442E-008	0.0011943	7
	29	42	1265.625	4538.808	-2809.875	1	5338.181	-31.76073	7.163084E-008	0.0011274	7
	30	43	998.264	4692.515	-3360.498	1	5771.71	-35.60797	8.526606E-008	0.0010764	7
	31	44	796.875	4856.436	-4009.168	1	6297.491	-39.54094	-7.962831E-009	0.0012167	7
	32	46	627.7902	5060.745	-4865.069	1	7019.975	-43.87063	8.39386E-008	0.0010901	7
	33	47	505.5147	5273.782	-5834.78	1	7864.949	-47.89106	8.340258E-008	0.0010826	7
	34	48	397.9953	5586.283	-7142.087	1	9067.303	-51.96877	5.418998E-009	0.0012778	7
	35	50	315.5048	5964.273	-8713.441	1	10559.2	-55.6087	1.055209E-009	0.0012186	6
	36	51	252.4038	6426.636	-10561.55	1	12363.17	-58.67976	1.721836E-010	0.0012142	6
	37	52	198.6229	7070.226	-12990.09	1	14789.54	-61.4415	5.951199E-010	0.0012204	6
	38	54	158.3615	7872.208	-15783.35	1	17637.62	-63.4915	2.347481E-010	0.0012163	6
	39	55	125.558	8944.104	-19245.79	1	21222.57	-65.07428	7.701738E-010	0.0012174	6
	40	56	100.4464	10289.04	-23226.21	1	25403.17	-66.10701	8.506506E-010	0.0012179	6
	41	58	79.00281	12202.73	-28340.06	1	30855.56	-66.70413	1.215599E-009	0.0012132	6
	42	59	63.3446	14595.97	-33708.43	1	36732.82	-66.58707	4.857666E-010	0.0012126	6
	43	61	49.86702	17937.19	-41246.42	1	44977.88	-66.49681	-1.390023E-010	0.0012144	6
	44	62	39.72458	21904.51	-48868.3	1	53552.95	-65.85638	5.485863E-010	0.0012191	6
	45	64	31.6723	27032.51	-57841.44	1	63846.61	-64.95071	5.09963E-010	0.0012125	6
	46	65	24.93351	33729.61	-68538.77	1	76388.8	-63.79707	6.084159E-010	0.0012128	6
	47	66	19.86229	41768.41	-79847.07	1	90111.9	-62.38571	-6.538078E-011	0.0012182	6
	48	68	15.83615	51086.41	-92353.12	1	105541.1	-61.05021	-4.929244E-010	0.001223	5
	49	69	12.40079	63534.31	-106673.3	1	124160.4	-59.22209	1.082639E-009	0.0012267	5
	50	71	9.93114	75924.44	-120688.1	1	142583.8	-57.82615	-3.849718E-010	0.0012304	5
	51	72	7.944915	89831.49	-136327.9	1	163263.6	-56.61764	7.968898E-010	0.0012242	5
	52	74	6.317385	104954.4	-153518.3	1	185965.9	-55.64112	-2.15539E-010	0.0012313	5
	53	76	5.008013	121318.8	-173519.5	1	211724.5	-55.0401	-6.93318E-011	0.0012124	5
	54	78	3.945707	138793.7	-197600.2	1	241473.6	-54.91592	4.262743E-010	0.0012254	5
	55	81	3.158693	156216.5	-224334.5	1	273367.1	-55.14837	4.605117E-011	0.0012234	5
	56	84	2.504006	175436.7	-258227.4	1	312184.9	-55.80827	2.995129E-010	0.0012094	5
	57	87	1.998082	195355.5	-297645.5	1	356028.9	-56.72166	-6.737946E-011	0.0012312	5
	58	90	1.584686	219548.1	-347597.7	1	411127.1	-57.72285	1.981587E-010	0.0012718	5
	59	94	1.266892	244817.8	-406078	1	474167.8	-58.91492	-8.809412E-011	0.0012288	5
	60	98	0.999041	277469.6	-481628.2	1	555837.3	-60.05343	3.282742E-010	0.00124	5
