EXPLAIN
TAG	EISPOT
TITLE	LABEL	Potentiostatic EIS	Test &Identifier
DATE	LABEL	10/10/2019	Date
TIME	LABEL	7:59:43	Time
NOTES	NOTES	1	&Notes...
	
PSTAT	PSTAT	REF600-11020	Potentiostat
VDC	POTEN	0.00000E+000	T	DC &Voltage (V)
FREQINIT	QUANT	1.00000E+006	Initial Fre&q. (Hz)
FREQFINAL	QUANT	1.00000E+000	Final Fre&q. (Hz)
PTSPERDEC	QUANT	1.00000E+001	Points/&decade
VAC	QUANT	2.50000E+001	AC &Voltage (mV rms)
AREA	QUANT	1.00000E-002	&Area (cm^2)
CONDIT	TWOPARAM	T	5.00000E+000	0.00000E+000	Conditionin&g	Time(s)	E(V)
DELAY	TWOPARAM	T	5.00000E+000	0.00000E+000	Init. De&lay	Time(s)	Stab.(mV/s)
SPEED	SELECTOR	1	&Optimize for:
ZGUESS	QUANT	1.00000E+004	E&stimated Z (ohms)
OCVCURVE	TABLE	19
	Pt	T	Vf	Vm	Ach	Over
	#	s	V vs. Ref.	V	V	bits
	0	0.258333	4.55379E-003	4.55379E-003	5.24900E-004	...........
	1	0.516667	4.54991E-003	4.35068E-003	5.25000E-004	...........
	2	0.775	4.52647E-003	4.17879E-003	5.27466E-004	...........
	3	1.03333	4.46175E-003	4.02694E-003	5.23666E-004	...........
	4	1.29167	4.34985E-003	3.89573E-003	5.26433E-004	...........
	5	1.55	4.20790E-003	3.77570E-003	5.30966E-004	...........
	6	1.80833	4.05934E-003	3.65243E-003	5.23600E-004	...........
	7	2.06667	3.91884E-003	3.57048E-003	5.25900E-004	...........
	8	2.325	3.79148E-003	3.45974E-003	5.22433E-004	...........
	9	2.58333	3.67700E-003	3.37392E-003	5.18000E-004	...........
	10	2.84167	3.57243E-003	3.28260E-003	5.25733E-004	...........
	11	3.1	3.47436E-003	3.18496E-003	5.27633E-004	...........
	12	3.35833	3.38083E-003	3.14254E-003	5.28166E-004	...........
	13	3.61667	3.29321E-003	3.08542E-003	5.31733E-004	...........
	14	3.875	3.21524E-003	3.02826E-003	5.32433E-004	...........
	15	4.13333	3.14901E-003	3.02495E-003	5.26433E-004	...........
	16	4.39167	3.09350E-003	2.91967E-003	5.28100E-004	...........
	17	4.65	3.04422E-003	2.88848E-003	5.28100E-004	...........
	18	4.90833	2.99499E-003	2.84117E-003	5.33366E-004	...........
EOC	QUANT	0.002995	Open Circuit (V)
PSTATMODEL	IQUANT	4	Pstat Model
PSTATSECTION	LABEL	REF600-11020	Pstat Section
PSTATSERIALNO	LABEL	11020	Pstat Serial Number
CTRLMODE	IQUANT	1	Control Mode
IESTAB	IQUANT	0	I/E Stability
CASPEED	IQUANT	1	Control Amp Speed
CONVENTION	IQUANT	1	Current Convention
ICHRANGE	IQUANT	2	Ich Range
ICHRANGEMODE	TOGGLE	F	Ich Auto Range
ICHOFFSETENABLE	TOGGLE	T	Ich Offset Enable
ICHOFFSET	QUANT	0	Ich Offset (V)
ICHFILTER	IQUANT	3	Ich Filter
VCHRANGE	IQUANT	2	Vch Range
VCHRANGEMODE	TOGGLE	F	Vch Auto Range
VCHOFFSETENABLE	TOGGLE	T	Vch Offset Enable
VCHOFFSET	QUANT	0	Vch Offset (V)
VCHFILTER	IQUANT	3	Vch Filter
ACHRANGE	IQUANT	2	Ach Range
ACHOFFSETENABLE	TOGGLE	F	Ach Offset Enable
ACHOFFSET	QUANT	0	Ach Offset (V)
ACHFILTER	IQUANT	3	Ach Filter
IERANGELOWERLIMIT	IQUANT	1	I/E Range Lower Limit
IERANGEMODE	TOGGLE	F	I/E AutoRange
IERANGE	IQUANT	5	I/E Range
POSFEEDENABLE	TOGGLE	F	Positive Feedback IR Comp
POSFEEDRESISTANCE	QUANT	0	Positive Feedback Resistance (ohm)
ACHSELECT	IQUANT	0	Ach Select
CABLEID	IQUANT	14	Cable ID
DCCALDATE	LABEL	8/19/2019	DC Calibration Date
ACCALDATE	LABEL	8/19/2019	AC Calibration Date
THERMOSELECT	IQUANT	1	Thermo Select
FRAMEWORKVERSION	QUANT	6.33	Framework Version
INSTRUMENTVERSION	LABEL	3.50	Instrument Version
ZCURVE	TABLE
	Pt	Time	Freq	Zreal	Zimag	Zsig	Zmod	Zphz	Idc	Vdc	IERange
	#	s	Hz	ohm	ohm	V	ohm	°	A	V	#
	0	2	1000078	2659.941	-1359.681	1	2987.31	-27.07474	-5.867373E-006	0.0065352	8
	1	3	794390.6	2905.028	-1251.925	1	3163.306	-23.31367	4.398345E-007	0.0053847	8
	2	5	630984.4	3101.036	-1107.809	1	3292.972	-19.65868	-4.903536E-008	0.0046339	8
	3	6	501234.4	3251.57	-956.546	1	3389.349	-16.39281	-3.222041E-006	0.0053921	8
	4	7	398109.4	3367.021	-828.3637	1	3467.422	-13.82157	5.691742E-008	0.0046238	8
	5	9	316265.6	3456.299	-722.1801	1	3530.941	-11.80193	2.906929E-006	0.0040141	8
	6	10	251203.1	3514.469	-619.5526	1	3568.66	-9.99774	-2.473021E-007	0.0045652	8
	7	12	199546.9	3557.155	-531.1638	1	3596.593	-8.492807	4.202212E-006	0.0039061	8
	8	13	158578.1	3613.165	-482.2111	1	3645.201	-7.601745	1.648646E-007	0.0045421	8
	9	14	125953.1	3670.643	-381.0499	1	3690.368	-5.926654	-1.303092E-006	0.0072542	7
	10	16	100078.1	3679.941	-365.3742	1	3698.035	-5.670202	-2.742172E-008	0.0046578	7
	11	17	79453.13	3709.142	-357.5747	1	3726.338	-5.506504	-7.001971E-008	0.0046883	7
	12	19	63140.62	3741.065	-359.7813	1	3758.325	-5.493289	1.351926E-007	0.0043763	7
	13	20	50203.12	3773.232	-368.9522	1	3791.228	-5.584712	8.583589E-008	0.0045265	7
	14	21	39890.62	3808.347	-384.0142	1	3827.659	-5.75795	-9.470845E-009	0.0046991	7
	15	23	31640.63	3845.855	-410.9531	1	3867.749	-6.09926	1.35502E-007	0.0043755	7
	16	24	25171.88	3886.151	-446.4724	1	3911.714	-6.553866	-3.187175E-009	0.0045175	7
	17	25	20015.62	3923.039	-486.0727	1	3953.037	-7.063069	8.541553E-008	0.0043986	7
	18	27	15890.62	3979.135	-543.021	1	4016.016	-7.770987	-2.582397E-009	0.0045122	7
	19	28	12609.37	4032.488	-604.7075	1	4077.576	-8.528463	-9.575515E-009	0.0045898	7
	20	29	10078.13	4086.39	-681.6602	1	4142.854	-9.470443	9.578654E-009	0.0045092	7
	21	31	8015.625	4160.91	-780.9132	1	4233.556	-10.62953	-4.090325E-008	0.0046546	7
	22	32	6328.125	4211.246	-891.2296	1	4304.519	-11.94924	1.056155E-008	0.0044955	7
	23	34	5015.625	4279.736	-1030.123	1	4401.965	-13.53353	4.63446E-008	0.0044158	7
	24	35	3984.375	4340.571	-1203.865	1	4504.425	-15.50145	-2.140215E-008	0.004545	7
	25	36	3170.956	4431.457	-1407.584	1	4649.635	-17.62165	-4.054538E-008	0.0046114	7
	26	38	2527.573	4519.285	-1660.066	1	4814.536	-20.16977	-3.428514E-008	0.0045697	7
	27	39	1976.103	4624.771	-1995.443	1	5036.894	-23.33867	-3.790127E-008	0.0045775	7
	28	40	1577.524	4726.828	-2356.093	1	5281.484	-26.49402	-4.35208E-008	0.0046455	7
	29	42	1265.625	4855.004	-2825.59	1	5617.386	-30.19921	8.512175E-008	0.0045108	7
	30	43	998.264	5003.242	-3417.682	1	6059.124	-34.33673	4.936878E-008	0.0044074	7
	31	45	796.875	5161.028	-4111.117	1	6598.295	-38.53976	8.536021E-008	0.0045139	7
	32	46	627.7902	5356.027	-5027.789	1	7346.134	-43.18945	-9.098398E-009	0.0046981	7
	33	47	505.5147	5561.808	-6029.773	1	8203.162	-47.31184	-4.951654E-009	0.0045068	7
	34	49	397.9953	5821.462	-7408.282	1	9421.893	-51.83957	3.536951E-009	0.0045736	7
	35	50	315.5048	6132.78	-9068.396	1	10947.46	-55.93027	6.037468E-010	0.0045102	6
	36	51	252.4038	6494.918	-11036.95	1	12806.18	-59.52444	6.32402E-010	0.0045103	6
	37	53	198.6229	6984.241	-13652.72	1	15335.46	-62.90735	7.252213E-010	0.0045096	6
	38	54	158.3615	7576.521	-16706.99	1	18344.68	-65.60599	3.49272E-010	0.0045103	6
	39	56	125.558	8357.837	-20544.31	1	22179.32	-67.86253	6.8735E-010	0.0045092	6
	40	57	100.4464	9345.413	-25074.54	1	26759.47	-69.5593	1.694051E-009	0.004509	6
	41	58	79.00281	10643	-31092.4	1	32863.52	-71.10381	3.26421E-010	0.0045054	6
	42	60	63.3446	12090.68	-37995.23	1	39872.57	-72.34811	1.074589E-009	0.0045033	6
	43	61	49.86702	14598.74	-46299.64	1	48546.68	-72.49942	5.364739E-010	0.0045045	6
	44	62	39.72458	17804.26	-56726.95	1	59455.35	-72.57507	1.155692E-009	0.0045082	6
	45	64	31.6723	21517.8	-68820.84	1	72106.34	-72.63741	6.717706E-010	0.0045048	6
	46	65	24.93351	27242.66	-84276.5	1	88570.26	-72.0864	8.88858E-010	0.0045048	6
	47	67	19.86229	34059.98	-101580.5	1	107138.6	-71.46367	-6.747996E-011	0.0045064	5
	48	68	15.83615	42924.11	-120467.3	1	127886.1	-70.38834	1.475855E-009	0.0045083	5
	49	69	12.40079	56051.3	-147941.7	1	158204	-69.2496	6.170963E-010	0.0045151	5
	50	71	9.93114	70987.82	-174104.5	1	188020.4	-67.81775	8.011528E-010	0.0045111	5
	51	72	7.944915	90064.37	-205335.9	1	224219.6	-66.3168	2.799428E-010	0.0045127	5
	52	74	6.317385	112711.4	-238972.2	1	264218.8	-64.74906	6.58496E-010	0.004499	5
	53	76	5.008013	141691.1	-278206.5	1	312210.2	-63.01016	5.792062E-011	0.0045089	5
	54	78	3.945707	176691.5	-322159.7	1	367432.7	-61.25702	3.232652E-010	0.0045153	5
	55	81	3.158693	213851.6	-367514.6	1	425205.3	-59.80548	-1.022815E-010	0.0045022	5
	56	84	2.504006	258542.8	-419236.7	1	492548.2	-58.33791	5.397522E-010	0.0045179	5
	57	87	1.998082	306892.8	-474589.3	1	565170.9	-57.1113	2.252855E-011	0.0045607	5
	58	90	1.584686	360147.3	-537866.4	1	647306.9	-56.19433	2.581704E-010	0.0045288	5
	59	94	1.266892	419149.4	-606873.1	1	737550.8	-55.3683	1.318825E-011	0.004561	5
	60	98	0.999041	484221.8	-691843.7	1	844463.4	-55.01181	2.494285E-010	0.0044925	5
