EXPLAIN
TAG	EISPOT
TITLE	LABEL	Potentiostatic IDE	Test &Identifier
DATE	LABEL	9/6/2019	Date
TIME	LABEL	7:56:50	Time
NOTES	NOTES	1	&Notes...
	
PSTAT	PSTAT	REF600-11020	Potentiostat
VDC	POTEN	0.00000E+000	T	DC &Voltage (V)
FREQINIT	QUANT	1.00000E+006	Initial Fre&q. (Hz)
FREQFINAL	QUANT	1.00000E+000	Final Fre&q. (Hz)
PTSPERDEC	QUANT	1.00000E+001	Points/&decade
VAC	QUANT	2.50000E+001	AC &Voltage (mV rms)
AREA	QUANT	1.00000E-002	&Area (cm^2)
CONDIT	TWOPARAM	T	5.00000E+000	0.00000E+000	Conditionin&g	Time(s)	E(V)
DELAY	TWOPARAM	T	5.00000E+000	0.00000E+000	Init. De&lay	Time(s)	Stab.(mV/s)
SPEED	SELECTOR	1	&Optimize for:
ZGUESS	QUANT	1.00000E+007	E&stimated Z (ohms)
OCVCURVE	TABLE	19
	Pt	T	Vf	Vm	Ach	Over
	#	s	V vs. Ref.	V	V	bits
	0	0.258333	4.56297E-003	4.56297E-003	5.63499E-004	...........
	1	0.516667	4.55723E-003	4.26228E-003	5.66166E-004	...........
	2	0.775	4.52286E-003	4.02459E-003	5.66766E-004	...........
	3	1.03333	4.42928E-003	3.83053E-003	5.63066E-004	...........
	4	1.29167	4.27031E-003	3.63293E-003	5.64832E-004	...........
	5	1.55	4.07005E-003	3.39119E-003	5.62666E-004	...........
	6	1.80833	3.85520E-003	3.20295E-003	5.65999E-004	...........
	7	2.06667	3.63932E-003	3.01975E-003	5.67099E-004	...........
	8	2.325	3.42921E-003	2.85017E-003	5.64299E-004	...........
	9	2.58333	3.23045E-003	2.71334E-003	5.67499E-004	...........
	10	2.84167	3.04752E-003	2.59949E-003	5.66232E-004	...........
	11	3.1	2.88428E-003	2.51429E-003	5.65432E-004	...........
	12	3.35833	2.74407E-003	2.45031E-003	5.62066E-004	...........
	13	3.61667	2.62804E-003	2.37384E-003	5.61766E-004	...........
	14	3.875	2.53095E-003	2.18677E-003	5.64266E-004	...........
	15	4.13333	2.43772E-003	2.05988E-003	5.61466E-004	...........
	16	4.39167	2.33219E-003	1.94953E-003	5.62132E-004	...........
	17	4.65	2.21198E-003	1.85075E-003	5.64099E-004	...........
	18	4.90833	2.08800E-003	1.75984E-003	5.61499E-004	...........
EOC	QUANT	0.002088	Open Circuit (V)
PSTATMODEL	IQUANT	4	Pstat Model
PSTATSECTION	LABEL	REF600-11020	Pstat Section
PSTATSERIALNO	LABEL	11020	Pstat Serial Number
CTRLMODE	IQUANT	1	Control Mode
IESTAB	IQUANT	0	I/E Stability
CASPEED	IQUANT	1	Control Amp Speed
CONVENTION	IQUANT	1	Current Convention
ICHRANGE	IQUANT	2	Ich Range
ICHRANGEMODE	TOGGLE	F	Ich Auto Range
ICHOFFSETENABLE	TOGGLE	T	Ich Offset Enable
ICHOFFSET	QUANT	0	Ich Offset (V)
ICHFILTER	IQUANT	3	Ich Filter
VCHRANGE	IQUANT	2	Vch Range
VCHRANGEMODE	TOGGLE	F	Vch Auto Range
VCHOFFSETENABLE	TOGGLE	T	Vch Offset Enable
VCHOFFSET	QUANT	0	Vch Offset (V)
VCHFILTER	IQUANT	3	Vch Filter
ACHRANGE	IQUANT	2	Ach Range
ACHOFFSETENABLE	TOGGLE	F	Ach Offset Enable
ACHOFFSET	QUANT	0	Ach Offset (V)
ACHFILTER	IQUANT	3	Ach Filter
IERANGELOWERLIMIT	IQUANT	1	I/E Range Lower Limit
IERANGEMODE	TOGGLE	F	I/E AutoRange
IERANGE	IQUANT	2	I/E Range
POSFEEDENABLE	TOGGLE	F	Positive Feedback IR Comp
POSFEEDRESISTANCE	QUANT	0	Positive Feedback Resistance (ohm)
ACHSELECT	IQUANT	0	Ach Select
CABLEID	IQUANT	14	Cable ID
DCCALDATE	LABEL	8/19/2019	DC Calibration Date
ACCALDATE	LABEL	8/19/2019	AC Calibration Date
THERMOSELECT	IQUANT	1	Thermo Select
FRAMEWORKVERSION	QUANT	6.33	Framework Version
INSTRUMENTVERSION	LABEL	3.50	Instrument Version
ZCURVE	TABLE
	Pt	Time	Freq	Zreal	Zimag	Zsig	Zmod	Zphz	Idc	Vdc	IERange
	#	s	Hz	ohm	ohm	V	ohm	°	A	V	#
	0	2	1000078	2371.626	-1702.224	1	2919.277	-35.66874	-5.763709E-006	0.0050325	8
	1	3	794390.6	2715.984	-1600.067	1	3152.267	-30.5036	6.155528E-006	0.0033555	8
	2	4	630984.4	3017.409	-1464.312	1	3353.948	-25.88673	-2.253941E-006	0.0041085	8
	3	6	501234.4	3254.62	-1284.1	1	3498.78	-21.53156	1.36047E-006	0.0035439	8
	4	7	398109.4	3441.325	-1123.963	1	3620.223	-18.08743	-1.13073E-006	0.0038927	8
	5	9	316265.6	3579.176	-967.825	1	3707.72	-15.13117	1.366385E-006	0.0034621	8
	6	10	251203.1	3676.298	-831.3489	1	3769.125	-12.7424	2.399309E-006	0.0032318	8
	7	11	199546.9	3749.68	-725.0832	1	3819.142	-10.94432	-1.158033E-006	0.0037956	8
	8	13	158578.1	3812.642	-634.2675	1	3865.04	-9.445171	2.433791E-006	0.0032379	8
	9	14	125953.1	3867.324	-535.578	1	3904.234	-7.884626	-6.190636E-007	0.0052333	7
	10	15	100078.1	3906.976	-490.5952	1	3937.657	-7.157116	-2.550737E-008	0.0036661	7
	11	17	79453.13	3942.195	-463.4998	1	3969.349	-6.705711	-1.031E-008	0.0036712	7
	12	18	63140.62	3980.02	-447.5651	1	4005.106	-6.416126	-2.560512E-009	0.0036564	7
	13	19	50203.12	4017.528	-442.3691	1	4041.809	-6.283513	-2.589342E-008	0.0036652	7
	14	21	39890.62	4053.165	-445.5963	1	4077.585	-6.273781	1.265872E-008	0.003576	7
	15	22	31640.63	4094.163	-464.4669	1	4120.424	-6.472312	2.940167E-008	0.0035374	7
	16	24	25171.88	4134.069	-490.6767	1	4163.086	-6.768826	4.759947E-008	0.0035437	7
	17	25	20015.62	4175.908	-528.7832	1	4209.254	-7.21679	-1.42121E-008	0.0036229	7
	18	26	15890.62	4219.523	-582.4814	1	4259.538	-7.859685	-1.959407E-008	0.0036972	7
	19	28	12609.37	4268.536	-649.0033	1	4317.592	-8.645241	-2.438379E-008	0.0036468	7
	20	29	10078.13	4320.691	-731.4385	1	4382.165	-9.60836	-1.306508E-008	0.0037102	7
	21	30	8015.625	4374.149	-835.3029	1	4453.191	-10.81124	7.646587E-008	0.003522	7
	22	32	6328.125	4438.543	-967.414	1	4542.748	-12.29575	3.076197E-009	0.0035798	7
	23	33	5015.625	4506.185	-1127.989	1	4645.219	-14.05351	-2.468855E-008	0.0036557	7
	24	34	3984.375	4585.019	-1325.326	1	4772.723	-16.12225	4.689935E-008	0.003543	7
	25	36	3170.956	4671.244	-1562.753	1	4925.72	-18.49754	3.217701E-008	0.0036111	7
	26	37	2527.573	4771.743	-1851.891	1	5118.499	-21.211	3.883259E-008	0.0036384	7
	27	38	1976.103	4898.297	-2230.332	1	5382.165	-24.4811	-2.283203E-008	0.0036359	7
	28	40	1577.524	5037.271	-2656.249	1	5694.713	-27.80353	-1.41035E-009	0.0036419	7
	29	41	1265.625	5197.244	-3158.901	1	6081.941	-31.29137	-1.819391E-008	0.0036884	7
	30	42	998.264	5398.726	-3809.589	1	6607.511	-35.20855	-8.941769E-009	0.0036367	7
	31	44	796.875	5628.55	-4561.009	1	7244.542	-39.01905	-7.174468E-009	0.0036476	7
	32	45	627.7902	5920.792	-5523.117	1	8096.95	-43.00978	-8.682761E-010	0.0036386	7
	33	46	505.5147	6242.973	-6580.831	1	9070.945	-46.50917	1.827184E-008	0.0036037	7
	34	48	397.9953	6656.997	-7977.495	1	10390.19	-50.15594	1.024155E-009	0.0035803	6
	35	49	315.5048	7143.596	-9633.72	1	11993.32	-53.44234	1.005998E-009	0.0035785	6
	36	51	252.4038	7702.786	-11555.39	1	13887.41	-56.31271	1.101839E-009	0.0035724	6
	37	52	198.6229	8424.92	-14055.78	1	16387.32	-59.06187	1.03932E-009	0.0035776	6
	38	53	158.3615	9252.357	-16924.62	1	19288.57	-61.33544	1.066548E-009	0.0035698	6
	39	55	125.558	10278.4	-20477.5	1	22912.3	-63.34628	8.479539E-010	0.0035736	6
	40	56	100.4464	11482.38	-24613.31	1	27159.9	-64.99043	1.123434E-009	0.0035643	6
	41	58	79.00281	13076.07	-29987.06	1	32714.02	-66.44006	7.50435E-010	0.0035666	6
	42	59	63.3446	14887.81	-36036.16	1	38990.41	-67.55276	7.967411E-010	0.0035617	6
	43	61	49.86702	17162.58	-43842.39	1	47081.95	-68.6216	7.208724E-010	0.0035658	6
	44	62	39.72458	19923.38	-52756.79	1	56393.44	-69.31116	7.863139E-010	0.0035741	6
	45	64	31.6723	23256.39	-63605.61	1	67723.95	-69.91586	9.553341E-010	0.0035636	6
	46	65	24.93351	27658.8	-77323.22	1	82121.19	-70.31768	9.29301E-010	0.003563	6
	47	67	19.86229	32771.01	-93160.91	1	98756.7	-70.61977	1.428989E-009	0.0035699	6
	48	68	15.83615	39527.26	-111974.5	1	118746.4	-70.55685	2.857716E-011	0.0035737	5
	49	69	12.40079	47899.24	-136775.8	1	144920.6	-70.69962	5.269628E-010	0.0035786	5
	50	71	9.93114	58518.27	-163677.4	1	173823.7	-70.32691	7.208241E-010	0.0035709	5
	51	73	7.944915	71598.94	-195247.6	1	207961.6	-69.86159	7.989993E-010	0.0035744	5
	52	74	6.317385	88567.23	-233814.5	1	250026.7	-69.25368	6.331806E-010	0.0035772	5
	53	76	5.008013	110408.4	-279797.7	1	300793.6	-68.46576	1.299407E-010	0.0035672	5
	54	79	3.945707	138655.2	-334152.4	1	361777.7	-67.4642	5.049434E-010	0.0035805	5
	55	81	3.158693	171557.1	-393237.7	1	429031.2	-66.42989	4.788003E-011	0.0035546	5
	56	84	2.504006	214088.2	-462983.1	1	510085.4	-65.18369	4.990676E-010	0.0035694	5
	57	87	1.998082	264278.9	-539096.5	1	600390.2	-63.88472	1.764336E-010	0.0036156	5
	58	90	1.584686	323636.7	-626524.6	1	705176.4	-62.681	3.206478E-010	0.0035897	5
	59	94	1.266892	394802.4	-721780.7	1	822700.6	-61.32205	1.019128E-010	0.0036136	5
	60	98	0.999041	479800.5	-832232.1	1	960635	-60.03559	1.847721E-010	0.0035315	5
