EXPLAIN
TAG	EISPOT
TITLE	LABEL	Potentiostatic EIS	Test &Identifier
DATE	LABEL	9/22/2019	Date
TIME	LABEL	10:51:42	Time
NOTES	NOTES	1	&Notes...
	
PSTAT	PSTAT	REF600-11020	Potentiostat
VDC	POTEN	0.00000E+000	T	DC &Voltage (V)
FREQINIT	QUANT	1.00000E+006	Initial Fre&q. (Hz)
FREQFINAL	QUANT	1.00000E+000	Final Fre&q. (Hz)
PTSPERDEC	QUANT	1.00000E+001	Points/&decade
VAC	QUANT	2.50000E+001	AC &Voltage (mV rms)
AREA	QUANT	1.00000E-002	&Area (cm^2)
CONDIT	TWOPARAM	T	5.00000E+000	0.00000E+000	Conditionin&g	Time(s)	E(V)
DELAY	TWOPARAM	T	5.00000E+000	0.00000E+000	Init. De&lay	Time(s)	Stab.(mV/s)
SPEED	SELECTOR	1	&Optimize for:
ZGUESS	QUANT	1.00000E+004	E&stimated Z (ohms)
OCVCURVE	TABLE	19
	Pt	T	Vf	Vm	Ach	Over
	#	s	V vs. Ref.	V	V	bits
	0	0.258333	4.48146E-003	4.48146E-003	5.69432E-004	...........
	1	0.516667	4.48022E-003	4.41660E-003	5.63799E-004	...........
	2	0.775	4.47263E-003	4.35586E-003	5.61699E-004	...........
	3	1.03333	4.45120E-003	4.29792E-003	5.68032E-004	...........
	4	1.29167	4.41297E-003	4.24225E-003	5.61666E-004	...........
	5	1.55	4.36265E-003	4.20816E-003	5.64166E-004	...........
	6	1.80833	4.30874E-003	4.17294E-003	5.69732E-004	...........
	7	2.06667	4.25829E-003	4.13237E-003	5.64832E-004	...........
	8	2.325	4.21394E-003	4.10416E-003	5.67599E-004	...........
	9	2.58333	4.17477E-003	4.07077E-003	5.67599E-004	...........
	10	2.84167	4.13923E-003	4.04464E-003	5.69499E-004	...........
	11	3.1	4.10639E-003	4.01608E-003	5.68266E-004	...........
	12	3.35833	4.07558E-003	3.98246E-003	5.67366E-004	...........
	13	3.61667	4.04608E-003	3.96753E-003	5.65732E-004	...........
	14	3.875	4.01796E-003	3.94777E-003	5.62666E-004	...........
	15	4.13333	3.99221E-003	3.92653E-003	5.68499E-004	...........
	16	4.39167	3.96933E-003	3.90945E-003	5.69032E-004	...........
	17	4.65	3.94847E-003	3.88112E-003	5.67299E-004	...........
	18	4.90833	3.92799E-003	3.85624E-003	5.68532E-004	...........
EOC	QUANT	0.003928	Open Circuit (V)
PSTATMODEL	IQUANT	4	Pstat Model
PSTATSECTION	LABEL	REF600-11020	Pstat Section
PSTATSERIALNO	LABEL	11020	Pstat Serial Number
CTRLMODE	IQUANT	1	Control Mode
IESTAB	IQUANT	0	I/E Stability
CASPEED	IQUANT	1	Control Amp Speed
CONVENTION	IQUANT	1	Current Convention
ICHRANGE	IQUANT	2	Ich Range
ICHRANGEMODE	TOGGLE	F	Ich Auto Range
ICHOFFSETENABLE	TOGGLE	T	Ich Offset Enable
ICHOFFSET	QUANT	0	Ich Offset (V)
ICHFILTER	IQUANT	3	Ich Filter
VCHRANGE	IQUANT	2	Vch Range
VCHRANGEMODE	TOGGLE	F	Vch Auto Range
VCHOFFSETENABLE	TOGGLE	T	Vch Offset Enable
VCHOFFSET	QUANT	0	Vch Offset (V)
VCHFILTER	IQUANT	3	Vch Filter
ACHRANGE	IQUANT	2	Ach Range
ACHOFFSETENABLE	TOGGLE	F	Ach Offset Enable
ACHOFFSET	QUANT	0	Ach Offset (V)
ACHFILTER	IQUANT	3	Ach Filter
IERANGELOWERLIMIT	IQUANT	1	I/E Range Lower Limit
IERANGEMODE	TOGGLE	F	I/E AutoRange
IERANGE	IQUANT	5	I/E Range
POSFEEDENABLE	TOGGLE	F	Positive Feedback IR Comp
POSFEEDRESISTANCE	QUANT	0	Positive Feedback Resistance (ohm)
ACHSELECT	IQUANT	0	Ach Select
CABLEID	IQUANT	14	Cable ID
DCCALDATE	LABEL	8/19/2019	DC Calibration Date
ACCALDATE	LABEL	8/19/2019	AC Calibration Date
THERMOSELECT	IQUANT	1	Thermo Select
FRAMEWORKVERSION	QUANT	6.33	Framework Version
INSTRUMENTVERSION	LABEL	3.50	Instrument Version
ZCURVE	TABLE
	Pt	Time	Freq	Zreal	Zimag	Zsig	Zmod	Zphz	Idc	Vdc	IERange
	#	s	Hz	ohm	ohm	V	ohm	°	A	V	#
	0	2	1000078	2434.808	-1988.888	1	3143.877	-39.24388	1.714371E-006	0.0061602	8
	1	3	794390.6	2840.542	-1964.12	1	3453.469	-34.6623	-1.626535E-006	0.0058723	8
	2	4	630984.4	3222.296	-1885.568	1	3733.438	-30.33459	4.35488E-006	0.0048441	8
	3	6	501234.4	3577.548	-1759.606	1	3986.862	-26.19012	-7.770081E-009	0.0056251	8
	4	7	398109.4	3878.608	-1599.382	1	4195.429	-22.40928	4.411432E-006	0.0047852	8
	5	9	316265.6	4113.027	-1435.883	1	4356.461	-19.24441	-1.390379E-006	0.0057915	8
	6	10	251203.1	4317.22	-1246.632	1	4493.604	-16.1065	-5.630721E-007	0.0055135	8
	7	11	199546.9	4458.609	-1095.999	1	4591.341	-13.81041	-2.923677E-007	0.0055327	8
	8	13	158578.1	4574.746	-950.261	1	4672.397	-11.73455	3.867282E-007	0.0055531	8
	9	14	125953.1	4685.334	-775.3406	1	4749.053	-9.396293	-4.116525E-007	0.0071898	7
	10	15	100078.1	4749.77	-679.3745	1	4798.11	-8.139984	1.004744E-008	0.0056373	7
	11	17	79453.13	4806.369	-614.3903	1	4845.478	-7.284521	9.584869E-009	0.0056332	7
	12	18	63140.62	4855.57	-564.1378	1	4888.232	-6.62712	9.927142E-009	0.0056323	7
	13	19	50203.12	4899.349	-527.8285	1	4927.699	-6.149011	-4.555857E-008	0.0055501	7
	14	21	39890.62	4941.111	-507.86	1	4967.142	-5.868398	4.398958E-008	0.0053897	7
	15	22	31640.63	4980.382	-500.4497	1	5005.463	-5.738059	-3.11059E-009	0.0055747	7
	16	24	25171.88	5018.025	-507.9584	1	5043.669	-5.780176	8.392315E-008	0.0053556	7
	17	25	20015.62	5059.219	-531.6458	1	5087.076	-5.998886	9.129446E-008	0.0054709	7
	18	26	15890.62	5101.437	-564.8848	1	5132.616	-6.318651	-4.373333E-008	0.0056376	7
	19	28	12609.37	5146.8	-618.1033	1	5183.782	-6.848121	-4.723318E-009	0.0055716	7
	20	29	10078.13	5195.208	-682.0267	1	5239.785	-7.479018	-2.393845E-008	0.0055096	7
	21	30	8015.625	5244.646	-767.5956	1	5300.521	-8.326574	1.186018E-008	0.0056229	7
	22	32	6328.125	5304.761	-878.1821	1	5376.959	-9.399839	4.819171E-008	0.0054657	7
	23	33	5015.625	5369.815	-1012.271	1	5464.394	-10.67562	-6.606604E-008	0.0056063	7
	24	35	3984.375	5440.343	-1177.766	1	5566.369	-12.21531	8.987938E-009	0.0054712	7
	25	36	3170.956	5517.769	-1377.35	1	5687.079	-14.0158	-4.389585E-008	0.0056368	7
	26	37	2527.573	5603.624	-1620.767	1	5833.309	-16.13174	-1.344013E-008	0.0055473	7
	27	39	1976.103	5709.957	-1945.973	1	6032.447	-18.81929	-2.326958E-008	0.0055089	7
	28	40	1577.524	5820.333	-2311.633	1	6262.581	-21.66125	4.823607E-008	0.0054672	7
	29	41	1265.625	5948.421	-2740.356	1	6549.295	-24.73488	4.370157E-008	0.0053806	7
	30	43	998.264	6104.58	-3311.721	1	6945.027	-28.47973	-2.255022E-008	0.0055005	7
	31	44	796.875	6276.234	-3971.003	1	7426.977	-32.32173	9.62623E-008	0.0054583	7
	32	45	627.7902	6495.463	-4824.368	1	8091.08	-36.60234	-4.59154E-008	0.0055484	7
	33	47	505.5147	6726.971	-5774.662	1	8865.6	-40.64392	-6.48209E-008	0.0057402	7
	34	48	397.9953	7035.805	-7042.061	1	9954.56	-45.02546	7.987846E-010	0.0054906	6
	35	49	315.5048	7390.829	-8563.834	1	11312.1	-49.20489	1.165852E-009	0.0054877	6
	36	51	252.4038	7800.579	-10345.46	1	12956.75	-52.98334	4.712553E-010	0.0054851	6
	37	52	198.6229	8334.818	-12692.08	1	15184.14	-56.70732	9.115713E-010	0.0054874	6
	38	54	158.3615	8952.498	-15418.98	1	17829.53	-59.85989	1.165442E-009	0.005485	6
	39	55	125.558	9745.59	-18832.51	1	21204.71	-62.63899	9.866934E-010	0.0054836	6
	40	56	100.4464	10709.96	-22856.76	1	25241.53	-64.89369	1.137517E-009	0.0054844	6
	41	58	79.00281	11965.33	-28076.22	1	30519.56	-66.9176	9.249401E-010	0.0054784	6
	42	59	63.3446	13681.15	-33833.89	1	36495.29	-67.98345	4.113796E-010	0.0054793	6
	43	61	49.86702	15615.41	-42027.87	1	44835.06	-69.61751	2.665181E-010	0.0054783	6
	44	62	39.72458	18335.64	-50888.69	1	54091.17	-70.18547	8.003765E-010	0.005486	6
	45	63	31.6723	21765.86	-61479.33	1	65218.56	-70.50423	4.454474E-010	0.0054793	6
	46	65	24.93351	26604.62	-75344.58	1	79903.76	-70.55157	6.182618E-010	0.0054764	6
	47	66	19.86229	32551.63	-90867.7	1	96522.3	-70.29089	1.504859E-009	0.0054824	6
	48	67	15.83615	40891.39	-109103.9	1	116515.1	-69.45435	6.214502E-010	0.0054888	5
	49	69	12.40079	51821.79	-131990	1	141798.7	-68.56409	1.135683E-009	0.0054801	5
	50	70	9.93114	64669.06	-157062.3	1	169854.8	-67.62101	7.788991E-010	0.005482	5
	51	72	7.944915	80374	-185005.9	1	201710.6	-66.51794	1.082318E-009	0.005482	5
	52	74	6.317385	102784.5	-217566.4	1	240623.8	-64.71263	5.487816E-010	0.0054984	5
	53	76	5.008013	130054.3	-254417.1	1	285731	-62.92454	3.525301E-010	0.005479	5
	54	78	3.945707	164121	-294921.3	1	337511.9	-60.90445	7.654974E-010	0.0054835	5
	55	81	3.158693	202616.2	-336446.4	1	392746.1	-58.94262	-4.999744E-011	0.0054688	5
	56	84	2.504006	249203.8	-381084.5	1	455332.8	-56.818	8.065177E-010	0.0054847	5
	57	87	1.998082	300702	-426224.3	1	521621.4	-54.79696	5.231374E-010	0.0055053	5
	58	90	1.584686	357982.8	-472305.6	1	592641.8	-52.83979	3.24182E-010	0.0054431	5
	59	94	1.266892	418929.8	-521795.1	1	669157.9	-51.24032	4.941048E-010	0.0054938	5
	60	98	0.999041	488132.1	-577068.6	1	755831.4	-49.77271	-2.040024E-010	0.0054692	5
