EXPLAIN
TAG	EISPOT
TITLE	LABEL	Potentiostatic EIS	Test &Identifier
DATE	LABEL	10/24/2019	Date
TIME	LABEL	10:39:24	Time
NOTES	NOTES	1	&Notes...
	
PSTAT	PSTAT	REF600-11020	Potentiostat
VDC	POTEN	0.00000E+000	T	DC &Voltage (V)
FREQINIT	QUANT	1.00000E+006	Initial Fre&q. (Hz)
FREQFINAL	QUANT	1.00000E+000	Final Fre&q. (Hz)
PTSPERDEC	QUANT	1.00000E+001	Points/&decade
VAC	QUANT	2.50000E+001	AC &Voltage (mV rms)
AREA	QUANT	1.00000E-002	&Area (cm^2)
CONDIT	TWOPARAM	T	5.00000E+000	0.00000E+000	Conditionin&g	Time(s)	E(V)
DELAY	TWOPARAM	T	5.00000E+000	0.00000E+000	Init. De&lay	Time(s)	Stab.(mV/s)
SPEED	SELECTOR	1	&Optimize for:
ZGUESS	QUANT	1.00000E+005	E&stimated Z (ohms)
OCVCURVE	TABLE	19
	Pt	T	Vf	Vm	Ach	Over
	#	s	V vs. Ref.	V	V	bits
	0	0.258333	4.69928E-003	4.69928E-003	5.66366E-004	...........
	1	0.516667	4.69734E-003	4.59790E-003	5.66666E-004	...........
	2	0.775	4.68592E-003	4.52660E-003	5.72866E-004	...........
	3	1.03333	4.65538E-003	4.46781E-003	5.70332E-004	...........
	4	1.29167	4.60461E-003	4.41308E-003	5.73432E-004	...........
	5	1.55	4.54287E-003	4.36678E-003	5.73866E-004	...........
	6	1.80833	4.48095E-003	4.33419E-003	5.68199E-004	...........
	7	2.06667	4.42557E-003	4.30970E-003	5.74999E-004	...........
	8	2.325	4.37955E-003	4.28830E-003	5.68266E-004	...........
	9	2.58333	4.34297E-003	4.26429E-003	5.74099E-004	...........
	10	2.84167	4.31393E-003	4.25111E-003	5.69499E-004	...........
	11	3.1	4.29010E-003	4.23571E-003	5.71332E-004	...........
	12	3.35833	4.27003E-003	4.22352E-003	5.71966E-004	...........
	13	3.61667	4.25301E-003	4.21570E-003	5.70066E-004	...........
	14	3.875	4.23864E-003	4.20623E-003	5.70966E-004	...........
	15	4.13333	4.22653E-003	4.19523E-003	5.76999E-004	...........
	16	4.39167	4.21613E-003	4.19378E-003	5.74266E-004	...........
	17	4.65	4.20706E-003	4.18575E-003	5.73932E-004	...........
	18	4.90833	4.19930E-003	4.17961E-003	5.71032E-004	...........
EOC	QUANT	0.0041993	Open Circuit (V)
PSTATMODEL	IQUANT	4	Pstat Model
PSTATSECTION	LABEL	REF600-11020	Pstat Section
PSTATSERIALNO	LABEL	11020	Pstat Serial Number
CTRLMODE	IQUANT	1	Control Mode
IESTAB	IQUANT	0	I/E Stability
CASPEED	IQUANT	1	Control Amp Speed
CONVENTION	IQUANT	1	Current Convention
ICHRANGE	IQUANT	2	Ich Range
ICHRANGEMODE	TOGGLE	F	Ich Auto Range
ICHOFFSETENABLE	TOGGLE	T	Ich Offset Enable
ICHOFFSET	QUANT	0	Ich Offset (V)
ICHFILTER	IQUANT	3	Ich Filter
VCHRANGE	IQUANT	2	Vch Range
VCHRANGEMODE	TOGGLE	F	Vch Auto Range
VCHOFFSETENABLE	TOGGLE	T	Vch Offset Enable
VCHOFFSET	QUANT	0	Vch Offset (V)
VCHFILTER	IQUANT	3	Vch Filter
ACHRANGE	IQUANT	2	Ach Range
ACHOFFSETENABLE	TOGGLE	F	Ach Offset Enable
ACHOFFSET	QUANT	0	Ach Offset (V)
ACHFILTER	IQUANT	3	Ach Filter
IERANGELOWERLIMIT	IQUANT	1	I/E Range Lower Limit
IERANGEMODE	TOGGLE	F	I/E AutoRange
IERANGE	IQUANT	4	I/E Range
POSFEEDENABLE	TOGGLE	F	Positive Feedback IR Comp
POSFEEDRESISTANCE	QUANT	0	Positive Feedback Resistance (ohm)
ACHSELECT	IQUANT	0	Ach Select
CABLEID	IQUANT	14	Cable ID
DCCALDATE	LABEL	8/19/2019	DC Calibration Date
ACCALDATE	LABEL	8/19/2019	AC Calibration Date
THERMOSELECT	IQUANT	1	Thermo Select
FRAMEWORKVERSION	QUANT	6.33	Framework Version
INSTRUMENTVERSION	LABEL	3.50	Instrument Version
ZCURVE	TABLE
	Pt	Time	Freq	Zreal	Zimag	Zsig	Zmod	Zphz	Idc	Vdc	IERange
	#	s	Hz	ohm	ohm	V	ohm	°	A	V	#
	0	2	1000078	2361.956	-1740.104	1	2933.734	-36.37988	8.141603E-007	0.0068072	8
	1	4	794390.6	2721.694	-1689.6	1	3203.493	-31.83159	2.652615E-006	0.0056702	8
	2	5	630984.4	3029.362	-1595.225	1	3423.708	-27.77074	-8.308622E-007	0.006032	8
	3	6	501234.4	3298.844	-1450.506	1	3603.657	-23.73516	-1.170337E-007	0.0059181	8
	4	8	398109.4	3540.69	-1289.513	1	3768.2	-20.01153	-7.871335E-007	0.0061593	8
	5	9	316265.6	3717.994	-1133.773	1	3887.02	-16.95867	-1.000949E-006	0.0060451	8
	6	11	251203.1	3855.063	-976.856	1	3976.903	-14.21921	-1.646158E-007	0.0057951	8
	7	12	199546.9	3963.25	-846.6987	1	4052.684	-12.05924	3.231973E-006	0.0052749	8
	8	14	158578.1	4038.07	-735.2833	1	4104.467	-10.3198	3.15936E-006	0.0052759	8
	9	15	125953.1	4135.314	-600.1704	1	4178.639	-8.257849	-4.974889E-007	0.0065762	7
	10	16	100078.1	4173.202	-537.7592	1	4207.707	-7.342677	-1.250249E-008	0.0058929	7
	11	18	79453.13	4217.102	-492.209	1	4245.729	-6.657291	-4.810827E-009	0.0057834	7
	12	19	63140.62	4256.377	-460.4514	1	4281.21	-6.174201	-5.082753E-009	0.0057795	7
	13	21	50203.12	4294.758	-439.6294	1	4317.2	-5.844678	-3.23247E-009	0.0057719	7
	14	22	39890.62	4332.23	-430.9529	1	4353.612	-5.680866	3.396791E-008	0.005726	7
	15	23	31640.63	4370.042	-432.637	1	4391.406	-5.653896	-4.403804E-008	0.0059019	7
	16	25	25171.88	4410.456	-444.7871	1	4432.827	-5.758714	3.314904E-008	0.0057297	7
	17	26	20015.62	4456.149	-463.8677	1	4480.228	-5.942863	-3.691676E-008	0.0058423	7
	18	27	15890.62	4498.361	-494.6488	1	4525.476	-6.275147	6.687083E-008	0.0056245	7
	19	29	12609.37	4547.565	-531.8252	1	4578.557	-6.670285	-2.20421E-009	0.0057895	7
	20	30	10078.13	4595.131	-577.7831	1	4631.313	-7.166653	3.272866E-008	0.0057244	7
	21	31	8015.625	4632.449	-636.8311	1	4676.017	-7.827491	-3.141914E-008	0.0057756	7
	22	33	6328.125	4698.197	-718.6174	1	4752.837	-8.696333	-3.361475E-008	0.0057783	7
	23	34	5015.625	4752.256	-814.5316	1	4821.556	-9.72593	-6.337505E-008	0.0058652	7
	24	35	3984.375	4805.336	-939.7965	1	4896.374	-11.06586	-2.86844E-008	0.0057817	7
	25	37	3170.956	4865.897	-1085.207	1	4985.441	-12.57252	-1.21587E-008	0.005739	7
	26	38	2527.573	4924.329	-1273.006	1	5086.212	-14.49442	-4.308948E-008	0.0058943	7
	27	39	1976.103	4997.73	-1524.916	1	5225.196	-16.96808	3.266303E-008	0.0057242	7
	28	41	1577.524	5078.238	-1801.894	1	5388.443	-19.53604	3.321155E-008	0.0056523	7
	29	42	1265.625	5155.439	-2163.717	1	5591.084	-22.76759	-3.408825E-008	0.005842	7
	30	44	998.264	5263	-2626.71	1	5882.073	-26.52331	-7.498353E-009	0.0058721	7
	31	45	796.875	5376.87	-3176.689	1	6245.165	-30.57487	-5.868536E-008	0.0058601	7
	32	46	627.7902	5527.539	-3894.407	1	6761.664	-35.16647	-2.77532E-008	0.0057798	7
	33	48	505.5147	5695.46	-4691.196	1	7378.725	-39.47736	6.649152E-008	0.0056194	7
	34	49	397.9953	5925.518	-5776.359	1	8275.148	-44.26971	4.768919E-009	0.0057862	7
	35	50	315.5048	6212.097	-7074.452	1	9414.777	-48.71354	4.496801E-009	0.0057859	7
	36	51	252.4038	6564.466	-8593.944	1	10814.25	-52.62568	6.792488E-010	0.0057227	6
	37	53	198.6229	7046.398	-10591.88	1	12721.62	-56.3656	8.718872E-010	0.0057239	6
	38	54	158.3615	7640.856	-12891.99	1	14986.2	-59.34553	2.095476E-009	0.0057185	6
	39	56	125.558	8421.874	-15740.1	1	17851.58	-61.85062	9.201988E-010	0.0057212	6
	40	57	100.4464	9400.778	-19041.65	1	21235.8	-63.72465	1.516379E-009	0.0057164	6
	41	58	79.00281	10752.93	-23318.91	1	25678.73	-65.2444	8.473361E-010	0.0057158	6
	42	60	63.3446	12085.98	-28161.61	1	30645.51	-66.77267	2.341671E-010	0.0057169	6
	43	61	49.86702	14333.59	-33888.39	1	36795.04	-67.07336	-1.522876E-010	0.0057138	6
	44	63	39.72458	16900.74	-40997.49	1	44344.44	-67.59666	1.979562E-010	0.0057166	6
	45	64	31.6723	19893.09	-49140.34	1	53014.22	-67.96082	3.016794E-010	0.0057159	6
	46	65	24.93351	24204.19	-59553.87	1	64284.57	-67.88194	7.314224E-010	0.0057107	6
	47	67	19.86229	29219.13	-71168.86	1	76933.5	-67.67888	-8.093097E-011	0.0057195	6
	48	68	15.83615	36032.81	-84318.42	1	91694.93	-66.86095	-4.739868E-010	0.0057173	6
	49	69	12.40079	44472.68	-102170.5	1	111429.9	-66.47751	-7.16787E-012	0.0057264	5
	50	71	9.93114	54665.29	-119826.5	1	131706.8	-65.47736	-1.297844E-011	0.0057297	5
	51	72	7.944915	67906.41	-139923.6	1	155531	-64.11221	5.168795E-010	0.0057289	5
	52	74	6.317385	82797.48	-163181.5	1	182985.3	-63.09698	4.366784E-010	0.0057127	5
	53	76	5.008013	101582	-189463.8	1	214977.7	-61.80179	1.041659E-010	0.0057283	5
	54	79	3.945707	123617.9	-219271.4	1	251716.7	-60.58715	-8.144108E-011	0.0057225	5
	55	81	3.158693	147317	-250802.5	1	290868	-59.57077	3.704453E-010	0.0057376	5
	56	85	2.504006	173949.1	-287052	1	335644.4	-58.78479	-2.718248E-010	0.0057198	5
	57	87	1.998082	202115	-327258.1	1	384640.5	-58.30048	1.564652E-010	0.0056818	5
	58	90	1.584686	233684.6	-374473	1	441405.2	-58.03436	1.9723E-013	0.0057591	5
	59	94	1.266892	268194.5	-430982.9	1	507616.6	-58.10659	-1.03134E-010	0.0057119	5
	60	98	0.999041	306454.5	-501455.1	1	587683.2	-58.56962	3.414116E-010	0.0057586	5
