EXPLAIN
TAG	EISPOT
TITLE	LABEL	Potentiostatic EIS	Test &Identifier
DATE	LABEL	11/3/2019	Date
TIME	LABEL	10:26:11	Time
NOTES	NOTES	1	&Notes...
	
PSTAT	PSTAT	REF600-11020	Potentiostat
VDC	POTEN	0.00000E+000	T	DC &Voltage (V)
FREQINIT	QUANT	1.00000E+006	Initial Fre&q. (Hz)
FREQFINAL	QUANT	1.00000E+000	Final Fre&q. (Hz)
PTSPERDEC	QUANT	1.00000E+001	Points/&decade
VAC	QUANT	2.50000E+001	AC &Voltage (mV rms)
AREA	QUANT	1.00000E-002	&Area (cm^2)
CONDIT	TWOPARAM	T	5.00000E+000	0.00000E+000	Conditionin&g	Time(s)	E(V)
DELAY	TWOPARAM	T	5.00000E+000	0.00000E+000	Init. De&lay	Time(s)	Stab.(mV/s)
SPEED	SELECTOR	1	&Optimize for:
ZGUESS	QUANT	1.00000E+005	E&stimated Z (ohms)
OCVCURVE	TABLE	19
	Pt	T	Vf	Vm	Ach	Over
	#	s	V vs. Ref.	V	V	bits
	0	0.258333	3.37334E-003	3.37334E-003	5.69932E-004	...........
	1	0.516667	3.36882E-003	3.13718E-003	5.67332E-004	...........
	2	0.775	3.34129E-003	2.92199E-003	5.68266E-004	...........
	3	1.03333	3.26432E-003	2.73548E-003	5.63966E-004	...........
	4	1.29167	3.12938E-003	2.55855E-003	5.59199E-004	...........
	5	1.55	2.95511E-003	2.40045E-003	5.65166E-004	...........
	6	1.80833	2.76871E-003	2.24386E-003	5.63266E-004	...........
	7	2.06667	2.58821E-003	2.10251E-003	5.68566E-004	...........
	8	2.325	2.41995E-003	1.96309E-003	5.66832E-004	...........
	9	2.58333	2.26377E-003	1.83609E-003	5.70532E-004	...........
	10	2.84167	2.11770E-003	1.71045E-003	5.63899E-004	...........
	11	3.1	1.97990E-003	1.59058E-003	5.68866E-004	...........
	12	3.35833	1.84894E-003	1.47745E-003	5.66066E-004	...........
	13	3.61667	1.72384E-003	1.36661E-003	5.64899E-004	...........
	14	3.875	1.60397E-003	1.26004E-003	5.66066E-004	...........
	15	4.13333	1.48882E-003	1.15548E-003	5.68732E-004	...........
	16	4.39167	1.37779E-003	1.05636E-003	5.68232E-004	...........
	17	4.65	1.27040E-003	9.55718E-004	5.68099E-004	...........
	18	4.90833	1.16621E-003	8.60185E-004	5.67232E-004	...........
EOC	QUANT	0.0011662	Open Circuit (V)
PSTATMODEL	IQUANT	4	Pstat Model
PSTATSECTION	LABEL	REF600-11020	Pstat Section
PSTATSERIALNO	LABEL	11020	Pstat Serial Number
CTRLMODE	IQUANT	1	Control Mode
IESTAB	IQUANT	0	I/E Stability
CASPEED	IQUANT	1	Control Amp Speed
CONVENTION	IQUANT	1	Current Convention
ICHRANGE	IQUANT	2	Ich Range
ICHRANGEMODE	TOGGLE	F	Ich Auto Range
ICHOFFSETENABLE	TOGGLE	T	Ich Offset Enable
ICHOFFSET	QUANT	0	Ich Offset (V)
ICHFILTER	IQUANT	3	Ich Filter
VCHRANGE	IQUANT	2	Vch Range
VCHRANGEMODE	TOGGLE	F	Vch Auto Range
VCHOFFSETENABLE	TOGGLE	T	Vch Offset Enable
VCHOFFSET	QUANT	0	Vch Offset (V)
VCHFILTER	IQUANT	3	Vch Filter
ACHRANGE	IQUANT	2	Ach Range
ACHOFFSETENABLE	TOGGLE	F	Ach Offset Enable
ACHOFFSET	QUANT	0	Ach Offset (V)
ACHFILTER	IQUANT	3	Ach Filter
IERANGELOWERLIMIT	IQUANT	1	I/E Range Lower Limit
IERANGEMODE	TOGGLE	F	I/E AutoRange
IERANGE	IQUANT	4	I/E Range
POSFEEDENABLE	TOGGLE	F	Positive Feedback IR Comp
POSFEEDRESISTANCE	QUANT	0	Positive Feedback Resistance (ohm)
ACHSELECT	IQUANT	0	Ach Select
CABLEID	IQUANT	14	Cable ID
DCCALDATE	LABEL	8/19/2019	DC Calibration Date
ACCALDATE	LABEL	8/19/2019	AC Calibration Date
THERMOSELECT	IQUANT	1	Thermo Select
FRAMEWORKVERSION	QUANT	6.33	Framework Version
INSTRUMENTVERSION	LABEL	3.50	Instrument Version
ZCURVE	TABLE
	Pt	Time	Freq	Zreal	Zimag	Zsig	Zmod	Zphz	Idc	Vdc	IERange
	#	s	Hz	ohm	ohm	V	ohm	°	A	V	#
	0	2	1000078	2049.487	-1062.049	1	2308.32	-27.3933	-1.999193E-006	0.0030971	8
	1	3	794390.6	2229.278	-967.4	1	2430.133	-23.45853	5.818888E-006	0.0030982	8
	2	4	630984.4	2380.996	-859.3475	1	2531.328	-19.84549	-2.305695E-006	0.0035201	8
	3	6	501234.4	2502.284	-749.4149	1	2612.097	-16.67255	-1.44527E-006	0.0026673	8
	4	7	398109.4	2590.899	-650.5886	1	2671.333	-14.09584	-1.542795E-006	0.0026163	8
	5	8	316265.6	2653.23	-562.5735	1	2712.217	-11.97132	6.148988E-009	0.0025063	8
	6	10	251203.1	2714.022	-497.9923	1	2759.332	-10.39747	2.380322E-006	0.0022607	8
	7	11	199546.9	2748.51	-435.8095	1	2782.847	-9.009928	6.782379E-006	0.0020617	8
	8	12	158578.1	2776.495	-385.5079	1	2803.131	-7.904804	-3.644475E-006	0.0033546	8
	9	14	125953.1	2836.268	-318.3087	1	2854.074	-6.403396	3.471537E-006	-0.0012672	7
	10	15	100078.1	2848.438	-297.2429	1	2863.905	-5.957422	-2.755305E-007	0.0019658	7
	11	16	79453.13	2873.254	-292.0692	1	2888.061	-5.804237	-2.751056E-007	0.0019527	7
	12	18	63140.62	2896.328	-297.1194	1	2911.528	-5.857191	-1.026814E-006	0.0042787	7
	13	19	50203.12	2923.128	-307.9156	1	2939.301	-6.013229	-6.704594E-007	0.0025939	7
	14	20	39890.62	2950.918	-325.2453	1	2968.788	-6.289659	-1.140853E-006	0.0037715	7
	15	22	31640.63	2982.379	-351.1665	1	3002.982	-6.715492	5.718849E-007	0.0029426	7
	16	23	25171.88	3017.088	-383.7544	1	3041.396	-7.248736	9.13119E-007	0.0011931	7
	17	24	20015.62	3054.005	-425.3131	1	3083.479	-7.92825	1.010876E-006	0.001401	7
	18	26	15890.62	3095.231	-474.0767	1	3131.326	-8.707954	9.448202E-007	0.0020956	7
	19	27	12609.37	3143.049	-533.5616	1	3188.016	-9.63464	9.13133E-007	0.0011896	7
	20	29	10078.13	3187.395	-602.412	1	3243.823	-10.70256	-1.140709E-006	0.0037727	7
	21	30	8015.625	3253.004	-684.3039	1	3324.201	-11.87957	9.435965E-007	0.002096	7
	22	31	6328.125	3315.407	-784.4139	1	3406.939	-13.31121	-1.140248E-006	0.003771	7
	23	33	5015.625	3391.68	-902.0741	1	3509.592	-14.89397	1.02617E-006	0.0017007	7
	24	34	3984.375	3468.565	-1037.525	1	3620.414	-16.65309	-9.746227E-007	0.0032294	7
	25	35	3170.956	3556.316	-1197.982	1	3752.671	-18.61663	1.011629E-006	0.0013958	7
	26	37	2527.573	3645.652	-1386.194	1	3900.296	-20.81841	-2.733162E-007	0.0040208	7
	27	38	1976.103	3756.385	-1634.7	1	4096.667	-23.51767	-2.73549E-007	0.0040181	7
	28	39	1577.524	3862.13	-1913.66	1	4310.237	-26.35811	-1.028894E-006	0.0042644	7
	29	41	1265.625	3976.835	-2238.118	1	4563.375	-29.37032	-8.404091E-007	0.0043222	7
	30	42	998.264	4110.304	-2668.916	1	4900.787	-32.9966	-1.152524E-006	0.0041199	7
	31	43	796.875	4249.354	-3176.958	1	5305.665	-36.783	-2.735678E-007	0.0019462	7
	32	45	627.7902	4413.221	-3832.447	1	5845.012	-40.97109	-1.027846E-006	0.0042767	7
	33	46	505.5147	4582.333	-4573.365	1	6474.06	-44.94388	-5.826052E-007	0.0042488	7
	34	47	397.9953	4792.183	-5590.2	1	7363.108	-49.39526	4.20408E-009	0.0027781	7
	35	49	315.5048	5038.977	-6813.399	1	8474.297	-53.51453	4.264277E-009	0.0027772	7
	36	50	252.4038	5328.707	-8262.292	1	9831.61	-57.18029	6.293063E-010	0.0027797	7
	37	51	198.6229	5717.978	-10186.8	1	11681.87	-60.69396	1.335413E-009	0.002713	6
	38	53	158.3615	6185.716	-12432.97	1	13886.75	-63.54849	1.53358E-009	0.0027123	6
	39	54	125.558	6800.878	-15264.2	1	16710.71	-65.98492	2.817546E-010	0.0027227	6
	40	56	100.4464	7583.963	-18583.48	1	20071.43	-67.79951	1.411456E-009	0.0027201	6
	41	57	79.00281	8704.164	-22954.77	1	24549.62	-69.23389	7.51238E-010	0.0027151	6
	42	58	63.3446	9964.09	-27636.14	1	29377.53	-70.17346	7.164175E-010	0.0027136	6
	43	60	49.86702	12069.72	-34317.55	1	36378.19	-70.62287	8.462793E-010	0.0027168	6
	44	61	39.72458	14314	-41664.79	1	44055.03	-71.03976	4.366566E-010	0.0027191	6
	45	62	31.6723	17582.81	-50311.66	1	53295.57	-70.73661	2.233233E-010	0.0027202	6
	46	64	24.93351	21937.79	-61321.6	1	65127.61	-70.31534	2.416712E-010	0.002721	6
	47	65	19.86229	27478.73	-73499.62	1	78468.3	-69.50113	1.091641E-009	0.0027089	6
	48	66	15.83615	33876.76	-87517.09	1	93844.95	-68.83921	-4.470321E-010	0.0027046	6
	49	68	12.40079	44627.94	-104299.5	1	113446.2	-66.83475	1.584219E-009	0.0027043	5
	50	69	9.93114	55798.56	-122894.9	1	134969	-65.58029	7.418431E-010	0.0027084	5
	51	71	7.944915	68667.05	-142701.1	1	158362.7	-64.30337	-4.315516E-010	0.0027279	5
	52	73	6.317385	85676.69	-165033.4	1	185947.6	-62.56403	-2.723481E-010	0.0027338	5
	53	75	5.008013	105142	-190045.4	1	217191.4	-61.04658	4.02447E-010	0.0027236	5
	54	77	3.945707	127638.9	-218642.7	1	253172.5	-59.72453	3.024343E-010	0.0027225	5
	55	80	3.158693	150684.2	-247948.7	1	290145.3	-58.71197	2.481138E-010	0.0027421	5
	56	83	2.504006	176697.4	-283338.4	1	333920.1	-58.05124	-1.004732E-010	0.0027105	5
	57	86	1.998082	204027.9	-322723.6	1	381808.8	-57.69867	-5.159554E-011	0.0026901	5
	58	89	1.584686	234419.8	-369173.4	1	437311.9	-57.58504	9.072892E-011	0.0027505	5
	59	92	1.266892	266417.1	-424750.4	1	501389.1	-57.90275	1.467474E-011	0.002684	5
	60	97	0.999041	305769.6	-496310.8	1	582940.4	-58.3634	-1.158898E-010	0.0027669	5
