EXPLAIN
TAG	EISPOT
TITLE	LABEL	Potentiostatic EIS	Test &Identifier
DATE	LABEL	10/10/2019	Date
TIME	LABEL	9:53:42	Time
NOTES	NOTES	1	&Notes...
	
PSTAT	PSTAT	REF600-11020	Potentiostat
VDC	POTEN	0.00000E+000	T	DC &Voltage (V)
FREQINIT	QUANT	1.00000E+006	Initial Fre&q. (Hz)
FREQFINAL	QUANT	1.00000E+000	Final Fre&q. (Hz)
PTSPERDEC	QUANT	1.00000E+001	Points/&decade
VAC	QUANT	2.50000E+001	AC &Voltage (mV rms)
AREA	QUANT	1.00000E-002	&Area (cm^2)
CONDIT	TWOPARAM	T	5.00000E+000	0.00000E+000	Conditionin&g	Time(s)	E(V)
DELAY	TWOPARAM	T	5.00000E+000	0.00000E+000	Init. De&lay	Time(s)	Stab.(mV/s)
SPEED	SELECTOR	1	&Optimize for:
ZGUESS	QUANT	1.00000E+004	E&stimated Z (ohms)
OCVCURVE	TABLE	19
	Pt	T	Vf	Vm	Ach	Over
	#	s	V vs. Ref.	V	V	bits
	0	0.258333	6.23368E-003	6.23368E-003	5.80465E-004	...........
	1	0.516667	6.23125E-003	6.10605E-003	5.79999E-004	...........
	2	0.775	6.21641E-003	5.99243E-003	5.79399E-004	...........
	3	1.03333	6.17522E-003	5.89906E-003	5.78832E-004	...........
	4	1.29167	6.10408E-003	5.82746E-003	5.76832E-004	...........
	5	1.55	6.01532E-003	5.77627E-003	5.85165E-004	...........
	6	1.80833	5.92646E-003	5.71930E-003	5.75066E-004	...........
	7	2.06667	5.84807E-003	5.65362E-003	5.76266E-004	...........
	8	2.325	5.78067E-003	5.60249E-003	5.77999E-004	...........
	9	2.58333	5.72067E-003	5.58781E-003	5.76799E-004	...........
	10	2.84167	5.66769E-003	5.56482E-003	5.81599E-004	...........
	11	3.1	5.62510E-003	5.57551E-003	5.78466E-004	...........
	12	3.35833	5.59937E-003	5.75895E-003	5.71266E-004	...........
	13	3.61667	5.60996E-003	6.19446E-003	5.69832E-004	...........
	14	3.875	5.69758E-003	6.71102E-003	5.72499E-004	...........
	15	4.13333	5.89513E-003	6.71056E-003	5.75732E-004	...........
	16	4.39167	6.16458E-003	6.32970E-003	5.78666E-004	...........
	17	4.65	6.38565E-003	6.06326E-003	5.72499E-004	...........
	18	4.90833	6.44509E-003	5.69617E-003	5.76766E-004	...........
EOC	QUANT	0.0064451	Open Circuit (V)
PSTATMODEL	IQUANT	4	Pstat Model
PSTATSECTION	LABEL	REF600-11020	Pstat Section
PSTATSERIALNO	LABEL	11020	Pstat Serial Number
CTRLMODE	IQUANT	1	Control Mode
IESTAB	IQUANT	0	I/E Stability
CASPEED	IQUANT	1	Control Amp Speed
CONVENTION	IQUANT	1	Current Convention
ICHRANGE	IQUANT	2	Ich Range
ICHRANGEMODE	TOGGLE	F	Ich Auto Range
ICHOFFSETENABLE	TOGGLE	T	Ich Offset Enable
ICHOFFSET	QUANT	0	Ich Offset (V)
ICHFILTER	IQUANT	3	Ich Filter
VCHRANGE	IQUANT	2	Vch Range
VCHRANGEMODE	TOGGLE	F	Vch Auto Range
VCHOFFSETENABLE	TOGGLE	T	Vch Offset Enable
VCHOFFSET	QUANT	0	Vch Offset (V)
VCHFILTER	IQUANT	3	Vch Filter
ACHRANGE	IQUANT	2	Ach Range
ACHOFFSETENABLE	TOGGLE	F	Ach Offset Enable
ACHOFFSET	QUANT	0	Ach Offset (V)
ACHFILTER	IQUANT	3	Ach Filter
IERANGELOWERLIMIT	IQUANT	1	I/E Range Lower Limit
IERANGEMODE	TOGGLE	F	I/E AutoRange
IERANGE	IQUANT	6	I/E Range
POSFEEDENABLE	TOGGLE	F	Positive Feedback IR Comp
POSFEEDRESISTANCE	QUANT	0	Positive Feedback Resistance (ohm)
ACHSELECT	IQUANT	0	Ach Select
CABLEID	IQUANT	14	Cable ID
DCCALDATE	LABEL	8/19/2019	DC Calibration Date
ACCALDATE	LABEL	8/19/2019	AC Calibration Date
THERMOSELECT	IQUANT	1	Thermo Select
FRAMEWORKVERSION	QUANT	6.33	Framework Version
INSTRUMENTVERSION	LABEL	3.50	Instrument Version
ZCURVE	TABLE
	Pt	Time	Freq	Zreal	Zimag	Zsig	Zmod	Zphz	Idc	Vdc	IERange
	#	s	Hz	ohm	ohm	V	ohm	°	A	V	#
	0	1	1000078	2571.73	-2372.032	1	3498.619	-42.68685	-1.52594E-006	0.008968	8
	1	3	794390.6	3049.203	-2395.503	1	3877.638	-38.15376	-2.39628E-006	0.0090743	8
	2	4	630984.4	3548.378	-2355.403	1	4258.98	-33.57609	-2.078927E-006	0.0088438	8
	3	5	501234.4	4026.794	-2224.505	1	4600.38	-28.91739	-1.424049E-006	0.0086136	8
	4	7	398109.4	4426.137	-2075.107	1	4888.431	-25.1186	1.086336E-007	0.0082423	8
	5	8	316265.6	4745.198	-1849.983	1	5093.068	-21.29903	-1.80967E-006	0.0085224	8
	6	9	251203.1	5007.237	-1604.625	1	5258.064	-17.76863	2.025408E-006	0.0076543	8
	7	11	199546.9	5226.869	-1398.317	1	5410.679	-14.97731	-3.353462E-006	0.008794	8
	8	12	158578.1	5327.75	-1206.866	1	5462.733	-12.76349	1.024109E-007	0.0081745	8
	9	14	125953.1	5510.011	-1002.829	1	5600.526	-10.315	5.963741E-007	0.0068892	7
	10	15	100078.1	5596.391	-877.0737	1	5664.702	-8.907018	7.293571E-008	0.0079631	7
	11	16	79453.13	5673.223	-787.7971	1	5727.659	-7.905671	-2.697166E-008	0.0080567	7
	12	18	63140.62	5733.246	-718.8734	1	5778.139	-7.146837	1.367295E-008	0.0080086	7
	13	19	50203.12	5787.357	-670.683	1	5826.089	-6.610384	-5.999959E-008	0.0081686	7
	14	20	39890.62	5841.955	-642.8273	1	5877.216	-6.279355	-3.694177E-008	0.0080697	7
	15	22	31640.63	5893.089	-632.9459	1	5926.982	-6.13034	-3.992029E-008	0.0081444	7
	16	23	25171.88	5934.213	-653.7542	1	5970.116	-6.286749	-1.9017E-009	0.008071	8
	17	25	20015.62	5974.189	-697.9154	1	6014.817	-6.663192	-7.347943E-008	0.0080758	8
	18	26	15890.62	6048.995	-700.4313	1	6089.413	-6.605035	-3.392168E-008	0.0080532	7
	19	28	12609.37	6109.734	-753.6042	1	6156.035	-7.031623	-4.191731E-008	0.0080968	7
	20	29	10078.13	6169.825	-827.7494	1	6225.104	-7.641227	4.060379E-008	0.0079227	7
	21	30	8015.625	6243.091	-931.2749	1	6312.167	-8.484188	-6.436898E-008	0.0082745	7
	22	32	6328.125	6302.484	-1051.094	1	6389.531	-9.468333	-7.016919E-009	0.0081081	7
	23	33	5015.625	6376.596	-1209.538	1	6490.297	-10.74049	6.213939E-008	0.0079754	7
	24	35	3984.375	6456.14	-1414.915	1	6609.367	-12.36139	-7.927305E-008	0.0081574	7
	25	36	3170.956	6542.971	-1644.817	1	6746.547	-14.11101	2.094188E-008	0.0081545	7
	26	37	2527.573	6634.901	-1936.738	1	6911.792	-16.2726	-3.227678E-008	0.0080483	7
	27	39	1976.103	6767.189	-2334.365	1	7158.499	-19.03205	-2.102978E-009	0.0080545	7
	28	40	1577.524	6889.757	-2766.305	1	7424.365	-21.87595	-3.118886E-009	0.0081041	7
	29	41	1265.625	7036.386	-3297.695	1	7770.813	-25.11076	-1.72877E-008	0.0080204	7
	30	43	998.264	7219.882	-3980.613	1	8244.512	-28.86972	5.644942E-008	0.0079818	7
	31	44	796.875	7408.03	-4795.347	1	8824.64	-32.91569	1.152674E-007	0.007954	7
	32	46	627.7902	7664.152	-5829.854	1	9629.46	-37.25899	9.715595E-010	0.0080207	7
	33	47	505.5147	7907.013	-6999.487	1	10560	-41.51606	-6.867196E-009	0.00818	6
	34	48	397.9953	8241.863	-8576.174	1	11894.5	-46.13878	8.198043E-010	0.008006	6
	35	50	315.5048	8626.608	-10472.33	1	13567.9	-50.51991	1.837553E-009	0.0080053	6
	36	51	252.4038	9077.529	-12714.7	1	15622.58	-54.47544	7.218942E-010	0.0080087	6
	37	52	198.6229	9677.14	-15677.13	1	18423.34	-58.3139	1.235039E-009	0.0080113	6
	38	54	158.3615	10387.01	-19133.71	1	21771.28	-61.50404	1.57598E-009	0.0080107	6
	39	55	125.558	11325.25	-23480.66	1	26069.19	-64.25095	1.261186E-009	0.0080092	6
	40	56	100.4464	12437.13	-28588.02	1	31176.23	-66.4887	1.565008E-009	0.0080097	6
	41	58	79.00281	14171.4	-35237.96	1	37980.81	-68.09184	1.031978E-009	0.008003	6
	42	59	63.3446	16619.63	-42610.23	1	45736.68	-68.6923	8.686253E-010	0.0080092	6
	43	61	49.86702	18892.46	-53261.09	1	56512.55	-70.46969	5.794482E-010	0.0080026	6
	44	62	39.72458	22550.22	-64408.64	1	68242.12	-70.70425	7.027055E-010	0.0080081	6
	45	63	31.6723	27156.92	-78181.27	1	82763.57	-70.8449	2.731163E-010	0.0080041	6
	46	65	24.93351	34154.95	-95367	1	101298.7	-70.29541	1.011156E-009	0.008	6
	47	66	19.86229	42991.39	-114589.7	1	122389	-69.43508	2.60734E-010	0.0080069	5
	48	68	15.83615	54702	-135097.4	1	145751.9	-67.95659	-6.419994E-010	0.0080105	5
	49	69	12.40079	69333.98	-166660.4	1	180507.3	-67.41174	1.205191E-009	0.008008	5
	50	71	9.93114	88679.6	-193203.7	1	212583.5	-65.34509	9.966949E-011	0.0080087	5
	51	72	7.944915	111314.9	-225836.6	1	251780.1	-63.7613	-1.739697E-010	0.0080119	5
	52	74	6.317385	141597.3	-258905.1	1	295095.9	-61.3254	-2.037245E-010	0.0080112	5
	53	76	5.008013	176608	-296103.7	1	344772.1	-59.18647	7.734067E-011	0.0079985	5
	54	78	3.945707	218111.7	-335431	1	400108.3	-56.96634	2.572174E-010	0.00801	5
	55	81	3.158693	260185.1	-374226.5	1	455787	-55.19062	-3.907972E-011	0.0079948	5
	56	85	2.504006	307947.7	-417466.2	1	518757.9	-53.58533	3.588633E-010	0.0080129	5
	57	87	1.998082	355711.7	-462743.2	1	583662.6	-52.45044	4.185827E-010	0.0080045	5
	58	91	1.584686	408575.1	-514720.3	1	657168.6	-51.55813	6.633834E-011	0.0079529	5
	59	94	1.266892	458321.7	-573736	1	734324	-51.38084	2.8395E-010	0.0079865	5
	60	99	0.999041	515495.1	-650806.8	1	830231.7	-51.61774	-1.163331E-010	0.0080071	5
