EXPLAIN
TAG	EISPOT
TITLE	LABEL	Potentiostatic EIS	Test &Identifier
DATE	LABEL	10/20/2019	Date
TIME	LABEL	9:24:15	Time
NOTES	NOTES	1	&Notes...
	
PSTAT	PSTAT	REF600-11020	Potentiostat
VDC	POTEN	0.00000E+000	T	DC &Voltage (V)
FREQINIT	QUANT	1.00000E+006	Initial Fre&q. (Hz)
FREQFINAL	QUANT	1.00000E+000	Final Fre&q. (Hz)
PTSPERDEC	QUANT	1.00000E+001	Points/&decade
VAC	QUANT	2.50000E+001	AC &Voltage (mV rms)
AREA	QUANT	1.00000E-002	&Area (cm^2)
CONDIT	TWOPARAM	T	5.00000E+000	0.00000E+000	Conditionin&g	Time(s)	E(V)
DELAY	TWOPARAM	T	5.00000E+000	0.00000E+000	Init. De&lay	Time(s)	Stab.(mV/s)
SPEED	SELECTOR	1	&Optimize for:
ZGUESS	QUANT	1.00000E+005	E&stimated Z (ohms)
OCVCURVE	TABLE	19
	Pt	T	Vf	Vm	Ach	Over
	#	s	V vs. Ref.	V	V	bits
	0	0.258333	6.30110E-003	6.30110E-003	5.45666E-004	...........
	1	0.516667	6.30077E-003	6.28381E-003	5.45566E-004	...........
	2	0.775	6.29913E-003	6.28762E-003	5.44366E-004	...........
	3	1.03333	6.29579E-003	6.29237E-003	5.47766E-004	...........
	4	1.29167	6.29263E-003	6.30979E-003	5.49499E-004	...........
	5	1.55	6.29295E-003	6.32837E-003	5.54333E-004	...........
	6	1.80833	6.29925E-003	6.35762E-003	5.51066E-004	...........
	7	2.06667	6.31236E-003	6.38346E-003	5.49699E-004	...........
	8	2.325	6.33158E-003	6.41048E-003	5.47799E-004	...........
	9	2.58333	6.35527E-003	6.44173E-003	5.43499E-004	...........
	10	2.84167	6.38177E-003	6.47366E-003	5.46399E-004	...........
	11	3.1	6.41023E-003	6.50704E-003	5.49333E-004	...........
	12	3.35833	6.44038E-003	6.54018E-003	5.46233E-004	...........
	13	3.61667	6.47344E-003	6.65207E-003	5.50733E-004	...........
	14	3.875	6.51304E-003	6.64659E-003	5.46766E-004	...........
	15	4.13333	6.55826E-003	6.61033E-003	5.53699E-004	...........
	16	4.39167	6.59647E-003	6.56784E-003	5.49699E-004	...........
	17	4.65	6.61248E-003	6.53523E-003	5.44499E-004	...........
	18	4.90833	6.60302E-003	6.50960E-003	5.48899E-004	...........
EOC	QUANT	0.006603	Open Circuit (V)
PSTATMODEL	IQUANT	4	Pstat Model
PSTATSECTION	LABEL	REF600-11020	Pstat Section
PSTATSERIALNO	LABEL	11020	Pstat Serial Number
CTRLMODE	IQUANT	1	Control Mode
IESTAB	IQUANT	0	I/E Stability
CASPEED	IQUANT	1	Control Amp Speed
CONVENTION	IQUANT	1	Current Convention
ICHRANGE	IQUANT	2	Ich Range
ICHRANGEMODE	TOGGLE	F	Ich Auto Range
ICHOFFSETENABLE	TOGGLE	T	Ich Offset Enable
ICHOFFSET	QUANT	0	Ich Offset (V)
ICHFILTER	IQUANT	3	Ich Filter
VCHRANGE	IQUANT	2	Vch Range
VCHRANGEMODE	TOGGLE	F	Vch Auto Range
VCHOFFSETENABLE	TOGGLE	T	Vch Offset Enable
VCHOFFSET	QUANT	0	Vch Offset (V)
VCHFILTER	IQUANT	3	Vch Filter
ACHRANGE	IQUANT	2	Ach Range
ACHOFFSETENABLE	TOGGLE	F	Ach Offset Enable
ACHOFFSET	QUANT	0	Ach Offset (V)
ACHFILTER	IQUANT	3	Ach Filter
IERANGELOWERLIMIT	IQUANT	1	I/E Range Lower Limit
IERANGEMODE	TOGGLE	F	I/E AutoRange
IERANGE	IQUANT	5	I/E Range
POSFEEDENABLE	TOGGLE	F	Positive Feedback IR Comp
POSFEEDRESISTANCE	QUANT	0	Positive Feedback Resistance (ohm)
ACHSELECT	IQUANT	0	Ach Select
CABLEID	IQUANT	14	Cable ID
DCCALDATE	LABEL	8/19/2019	DC Calibration Date
ACCALDATE	LABEL	8/19/2019	AC Calibration Date
THERMOSELECT	IQUANT	1	Thermo Select
FRAMEWORKVERSION	QUANT	6.33	Framework Version
INSTRUMENTVERSION	LABEL	3.50	Instrument Version
ZCURVE	TABLE
	Pt	Time	Freq	Zreal	Zimag	Zsig	Zmod	Zphz	Idc	Vdc	IERange
	#	s	Hz	ohm	ohm	V	ohm	°	A	V	#
	0	1	1000078	2537.206	-1370.321	1	2883.607	-28.37306	-7.02713E-006	0.0096161	8
	1	2	794390.6	2761.009	-1276.866	1	3041.966	-24.81881	-1.539727E-006	0.0092088	8
	2	4	630984.4	2985.84	-1141.296	1	3196.529	-20.91866	3.864756E-006	0.0075324	8
	3	5	501234.4	3148.577	-1004.425	1	3304.906	-17.69316	2.505799E-006	0.0075059	8
	4	7	398109.4	3270.007	-877.695	1	3385.749	-15.02451	-6.951165E-007	0.0081324	8
	5	8	316265.6	3388.691	-757.3511	1	3472.292	-12.59821	-1.542195E-007	0.0080527	8
	6	9	251203.1	3446.536	-646.2582	1	3506.602	-10.62018	-2.21427E-006	0.0085175	8
	7	11	199546.9	3515.01	-566.5176	1	3560.371	-9.155683	1.297743E-006	0.0078339	8
	8	12	158578.1	3574.935	-462.1506	1	3604.683	-7.366074	-2.497466E-007	0.0082203	8
	9	14	125953.1	3623.734	-370.9679	1	3642.672	-5.845106	-5.143655E-007	0.0092783	7
	10	15	100078.1	3648.607	-340.9218	1	3664.5	-5.338154	3.855761E-008	0.0080214	7
	11	16	79453.13	3672.447	-321.3164	1	3686.477	-5.000293	3.821223E-008	0.0080136	7
	12	18	63140.62	3698.264	-310.0337	1	3711.236	-4.792027	6.456582E-008	0.0079439	7
	13	19	50203.12	3724.865	-305.2556	1	3737.352	-4.684965	-1.634051E-008	0.0082003	7
	14	20	39890.62	3752.216	-307.8968	1	3764.827	-4.691029	-1.636239E-008	0.0080178	7
	15	22	31640.63	3779.923	-317.6099	1	3793.243	-4.803024	-1.571546E-008	0.0080225	7
	16	23	25171.88	3808.709	-334.5005	1	3823.369	-5.019134	-8.082429E-008	0.0081825	7
	17	24	20015.62	3854.006	-363.046	1	3871.067	-5.381362	-6.83923E-009	0.0080941	7
	18	26	15890.62	3872.889	-391.634	1	3892.64	-5.774232	9.077407E-008	0.0079933	7
	19	27	12609.37	3904.667	-432.0186	1	3928.494	-6.313618	-3.616194E-008	0.0080903	7
	20	28	10078.13	3943.486	-483.7428	1	3973.045	-6.993467	1.388556E-007	0.0078459	7
	21	30	8015.625	3983.11	-532.843	1	4018.593	-7.61954	8.39169E-008	0.007889	7
	22	31	6328.125	4023.259	-629.8754	1	4072.266	-8.897913	-1.601391E-008	0.0080278	7
	23	32	5015.625	4068.659	-730.4113	1	4133.702	-10.17741	-4.512255E-008	0.0081455	7
	24	34	3984.375	4100.417	-861.602	1	4189.961	-11.86666	-4.34567E-008	0.0080757	7
	25	35	3170.956	4168.667	-1005.196	1	4288.147	-13.55701	-1.683279E-008	0.0080183	7
	26	36	2527.573	4227.854	-1190.505	1	4392.272	-15.72648	-1.599047E-008	0.0081943	7
	27	38	1976.103	4299.61	-1438.875	1	4533.984	-18.50294	1.39151E-007	0.0078396	7
	28	39	1577.524	4372.367	-1695.095	1	4689.45	-21.19049	-8.135093E-008	0.0081859	7
	29	40	1265.625	4464.388	-2047.528	1	4911.53	-24.63789	-1.478561E-008	0.0080169	7
	30	42	998.264	4569.967	-2479.794	1	5199.421	-28.48552	-5.862858E-008	0.0082237	7
	31	43	796.875	4687.442	-2986.621	1	5558.059	-32.5034	-1.737504E-008	0.0080987	7
	32	44	627.7902	4825.968	-3644.219	1	6047.339	-37.05744	-1.527892E-008	0.0080165	7
	33	46	505.5147	4974.809	-4378.486	1	6627.207	-41.35202	1.08374E-008	0.0079722	7
	34	47	397.9953	5161.003	-5381.954	1	7456.633	-46.20058	5.18444E-009	0.0080643	7
	35	48	315.5048	5380.776	-6590.385	1	8507.991	-50.76979	5.295509E-009	0.00806	7
	36	50	252.4038	5637.399	-8020.388	1	9803.41	-54.89725	5.455946E-009	0.0080577	7
	37	51	198.6229	5979.792	-9921.35	1	11584.09	-58.92181	1.085381E-009	0.0080024	6
	38	52	158.3615	6385.12	-12146.61	1	13722.61	-62.27041	1.674225E-009	0.0079992	6
	39	54	125.558	6921.966	-14953.59	1	16477.97	-65.16074	5.491526E-010	0.0080049	6
	40	55	100.4464	7558.159	-18250.9	1	19754.02	-67.50433	6.205108E-010	0.007998	6
	41	57	79.00281	8524.548	-22583.2	1	24138.54	-69.31983	1.746674E-009	0.0079971	6
	42	58	63.3446	9580.91	-27907.35	1	29506.17	-71.05207	1.257116E-009	0.0079935	6
	43	59	49.86702	11084.68	-33928.12	1	35692.96	-71.90723	7.189219E-010	0.007992	6
	44	61	39.72458	13403.53	-41560.77	1	43668.66	-72.12526	1.684569E-010	0.0079983	6
	45	62	31.6723	16206.41	-50729.85	1	53255.66	-72.28314	1.19401E-010	0.0079959	6
	46	64	24.93351	20046.06	-62204.66	1	65354.91	-72.13795	9.320698E-010	0.0079916	6
	47	65	19.86229	25101.17	-75293.57	1	79367.44	-71.56278	7.848834E-010	0.0080024	6
	48	66	15.83615	32600.75	-90226.06	1	95935.1	-70.13405	2.540381E-009	0.0079969	6
	49	68	12.40079	40584.57	-109433	1	116716.3	-69.65209	1.08527E-009	0.0079979	5
	50	69	9.93114	51262.84	-129641.2	1	139408.5	-68.42513	-1.208592E-010	0.0080022	5
	51	71	7.944915	65568.59	-153497.4	1	166915.3	-66.86957	1.87616E-010	0.0080059	5
	52	72	6.317385	81798.54	-179166.5	1	196956	-65.46091	2.911766E-010	0.0080171	5
	53	74	5.008013	102112.6	-208996	1	232607.7	-63.9605	5.664353E-010	0.008014	5
	54	77	3.945707	127482.2	-242812.8	1	274243.9	-62.29951	2.871901E-011	0.0079997	5
	55	80	3.158693	154283.7	-277548.5	1	317547.8	-60.93118	1.86194E-010	0.0080206	5
	56	83	2.504006	185666.2	-318360.9	1	368545.3	-59.74952	7.482636E-011	0.0079953	5
	57	86	1.998082	218622.5	-362733	1	423522.2	-58.92224	-1.863794E-010	0.0080144	5
	58	89	1.584686	257269.9	-415008.5	1	488282.6	-58.20461	1.301722E-010	0.0080498	5
	59	92	1.266892	296104.6	-473347.8	1	558333.3	-57.97179	-1.636404E-010	0.0080143	5
	60	97	0.999041	342359.7	-546848.8	1	645177.3	-57.951	2.607445E-010	0.0080147	5
