EXPLAIN
TAG	EISPOT
TITLE	LABEL	Potentiostatic EIS	Test &Identifier
DATE	LABEL	10/4/2019	Date
TIME	LABEL	8:38:38	Time
NOTES	NOTES	2	&Notes...
	
	
PSTAT	PSTAT	REF600-11020	Potentiostat
VDC	POTEN	0.00000E+000	T	DC &Voltage (V)
FREQINIT	QUANT	1.00000E+006	Initial Fre&q. (Hz)
FREQFINAL	QUANT	1.00000E+000	Final Fre&q. (Hz)
PTSPERDEC	QUANT	1.00000E+001	Points/&decade
VAC	QUANT	2.50000E+001	AC &Voltage (mV rms)
AREA	QUANT	1.00000E-002	&Area (cm^2)
CONDIT	TWOPARAM	T	5.00000E+000	0.00000E+000	Conditionin&g	Time(s)	E(V)
DELAY	TWOPARAM	T	5.00000E+000	0.00000E+000	Init. De&lay	Time(s)	Stab.(mV/s)
SPEED	SELECTOR	1	&Optimize for:
ZGUESS	QUANT	1.00000E+004	E&stimated Z (ohms)
OCVCURVE	TABLE	19
	Pt	T	Vf	Vm	Ach	Over
	#	s	V vs. Ref.	V	V	bits
	0	0.258333	3.48586E-003	3.48586E-003	5.57899E-004	...........
	1	0.516667	3.48263E-003	3.31712E-003	5.57999E-004	...........
	2	0.775	3.46314E-003	3.17296E-003	5.55999E-004	...........
	3	1.03333	3.40928E-003	3.04903E-003	5.55366E-004	...........
	4	1.29167	3.31619E-003	2.93770E-003	5.52699E-004	...........
	5	1.55	3.19821E-003	2.84125E-003	5.59599E-004	...........
	6	1.80833	3.07509E-003	2.74877E-003	5.53599E-004	...........
	7	2.06667	2.95951E-003	2.66719E-003	5.53799E-004	...........
	8	2.325	2.85541E-003	2.58862E-003	5.55699E-004	...........
	9	2.58333	2.76199E-003	2.51938E-003	5.60932E-004	...........
	10	2.84167	2.67722E-003	2.45118E-003	5.54399E-004	...........
	11	3.1	2.59944E-003	2.39245E-003	5.55299E-004	...........
	12	3.35833	2.52757E-003	2.33320E-003	5.59299E-004	...........
	13	3.61667	2.46091E-003	2.27971E-003	5.58432E-004	...........
	14	3.875	2.39882E-003	2.22971E-003	5.53766E-004	...........
	15	4.13333	2.34073E-003	2.17788E-003	5.55966E-004	...........
	16	4.39167	2.28602E-003	2.13297E-003	5.59932E-004	...........
	17	4.65	2.23404E-003	2.08415E-003	5.58799E-004	...........
	18	4.90833	2.18432E-003	2.04408E-003	5.61699E-004	...........
EOC	QUANT	0.0021843	Open Circuit (V)
PSTATMODEL	IQUANT	4	Pstat Model
PSTATSECTION	LABEL	REF600-11020	Pstat Section
PSTATSERIALNO	LABEL	11020	Pstat Serial Number
CTRLMODE	IQUANT	1	Control Mode
IESTAB	IQUANT	0	I/E Stability
CASPEED	IQUANT	1	Control Amp Speed
CONVENTION	IQUANT	1	Current Convention
ICHRANGE	IQUANT	2	Ich Range
ICHRANGEMODE	TOGGLE	F	Ich Auto Range
ICHOFFSETENABLE	TOGGLE	T	Ich Offset Enable
ICHOFFSET	QUANT	0	Ich Offset (V)
ICHFILTER	IQUANT	3	Ich Filter
VCHRANGE	IQUANT	2	Vch Range
VCHRANGEMODE	TOGGLE	F	Vch Auto Range
VCHOFFSETENABLE	TOGGLE	T	Vch Offset Enable
VCHOFFSET	QUANT	0	Vch Offset (V)
VCHFILTER	IQUANT	3	Vch Filter
ACHRANGE	IQUANT	2	Ach Range
ACHOFFSETENABLE	TOGGLE	F	Ach Offset Enable
ACHOFFSET	QUANT	0	Ach Offset (V)
ACHFILTER	IQUANT	3	Ach Filter
IERANGELOWERLIMIT	IQUANT	1	I/E Range Lower Limit
IERANGEMODE	TOGGLE	F	I/E AutoRange
IERANGE	IQUANT	5	I/E Range
POSFEEDENABLE	TOGGLE	F	Positive Feedback IR Comp
POSFEEDRESISTANCE	QUANT	0	Positive Feedback Resistance (ohm)
ACHSELECT	IQUANT	0	Ach Select
CABLEID	IQUANT	14	Cable ID
DCCALDATE	LABEL	8/19/2019	DC Calibration Date
ACCALDATE	LABEL	8/19/2019	AC Calibration Date
THERMOSELECT	IQUANT	1	Thermo Select
FRAMEWORKVERSION	QUANT	6.33	Framework Version
INSTRUMENTVERSION	LABEL	3.50	Instrument Version
ZCURVE	TABLE
	Pt	Time	Freq	Zreal	Zimag	Zsig	Zmod	Zphz	Idc	Vdc	IERange
	#	s	Hz	ohm	ohm	V	ohm	°	A	V	#
	0	2	1000078	1866.593	-581.858	1	1955.179	-17.31341	1.485364E-006	0.0040266	8
	1	3	794390.6	1938.879	-506.7056	1	2003.997	-14.64608	-1.716621E-006	0.0042251	8
	2	5	630984.4	1996.465	-436.9713	1	2043.726	-12.34579	2.756569E-006	0.0035481	8
	3	6	501234.4	2039.584	-376.5359	1	2074.05	-10.45984	-3.731489E-006	0.0046449	8
	4	7	398109.4	2077.333	-327.3936	1	2102.974	-8.956307	2.554499E-006	0.0034578	8
	5	9	316265.6	2105.531	-283.7792	1	2124.569	-7.675953	3.438382E-006	0.0032251	8
	6	10	251203.1	2128.714	-253.2916	1	2143.731	-6.78561	-1.549752E-006	0.0041915	8
	7	11	199546.9	2146.057	-232.2179	1	2158.584	-6.175764	3.508115E-006	0.0032312	8
	8	13	158578.1	2168.812	-219.309	1	2179.872	-5.774089	-8.961591E-007	0.0037951	8
	9	14	125953.1	2194.54	-184.3563	1	2202.27	-4.80196	-8.408217E-007	0.0056904	7
	10	15	100078.1	2210.583	-176.4454	1	2217.614	-4.563586	-2.908478E-008	0.0038028	7
	11	17	79453.13	2227.404	-182.7076	1	2234.885	-4.689311	5.323018E-009	0.0038914	7
	12	18	63140.62	2246.483	-193.542	1	2254.804	-4.924065	1.568692E-008	0.0037301	7
	13	19	50203.12	2266.547	-207.3104	1	2276.008	-5.226035	-2.760489E-008	0.0037974	7
	14	21	39890.62	2289.416	-224.0502	1	2300.353	-5.589367	7.138991E-008	0.0036516	7
	15	22	31640.63	2313.944	-244.5315	1	2326.829	-6.032477	-5.772452E-008	0.0039035	7
	16	23	25171.88	2340.092	-269.2312	1	2355.529	-6.563111	3.064531E-008	0.0037687	7
	17	25	20015.62	2369.354	-298.8578	1	2388.127	-7.189023	1.009249E-008	0.0037654	7
	18	26	15890.62	2401.796	-333.9214	1	2424.898	-7.915087	-2.870022E-008	0.0037873	7
	19	27	12609.37	2438.657	-375.9885	1	2467.472	-8.764762	9.837831E-009	0.0037691	7
	20	29	10078.13	2476.526	-421.208	1	2512.09	-9.65251	-5.743695E-008	0.0038736	7
	21	30	8015.625	2519.157	-476.7719	1	2563.876	-10.71696	-3.930006E-008	0.0038757	7
	22	32	6328.125	2566.677	-543.1519	1	2623.518	-11.94847	-5.835261E-008	0.0038646	7
	23	33	5015.625	2617.305	-620.9694	1	2689.961	-13.34694	7.159489E-008	0.0036421	7
	24	34	3984.375	2671.198	-712.9962	1	2764.717	-14.94497	-5.708825E-008	0.0038991	7
	25	36	3170.956	2727.055	-821.3546	1	2848.061	-16.76164	4.444435E-008	0.0036561	7
	26	37	2527.573	2785.091	-952.4	1	2943.433	-18.87883	-2.675913E-008	0.0037879	7
	27	38	1976.103	2850.835	-1128.458	1	3066.053	-21.59536	7.928421E-009	0.0038854	7
	28	40	1577.524	2915.485	-1328.236	1	3203.789	-24.49305	7.628369E-009	0.0038805	7
	29	41	1265.625	2981.703	-1567.291	1	3368.524	-27.72804	4.487253E-008	0.0036538	7
	30	42	998.264	3060.577	-1891.206	1	3597.748	-31.71294	1.158759E-008	0.0037605	7
	31	44	796.875	3146.702	-2270.24	1	3880.17	-35.80919	3.266617E-008	0.0037572	7
	32	45	627.7902	3251.47	-2770.776	1	4271.915	-40.43634	3.170669E-008	0.0037551	7
	33	46	505.5147	3366.315	-3332.998	1	4737.188	-44.71506	-1.896744E-008	0.00384	7
	34	48	397.9953	3521.466	-4100.489	1	5405.065	-49.34429	3.86109E-009	0.0038118	7
	35	49	315.5048	3709.57	-5021.355	1	6242.989	-53.54454	4.348321E-009	0.0038158	7
	36	50	252.4038	3935.473	-6104.238	1	7262.896	-57.18965	3.442824E-009	0.0038081	7
	37	52	198.6229	4244.184	-7532.939	1	8646.286	-60.60236	3.886405E-009	0.003809	7
	38	53	158.3615	4618.431	-9187.463	1	10282.97	-63.31186	3.287979E-009	0.0038054	7
	39	54	125.558	5107.253	-11257.05	1	12361.44	-65.5965	8.783306E-010	0.0037486	6
	40	56	100.4464	5708.745	-13661.81	1	14806.58	-67.32183	1.041557E-009	0.0037469	6
	41	57	79.00281	6534.936	-16832.12	1	18056.18	-68.78169	1.832138E-010	0.0037519	6
	42	59	63.3446	7578.259	-20363.8	1	21728.19	-69.58757	6.811378E-010	0.0037512	6
	43	60	49.86702	8808.104	-24927.31	1	26437.73	-70.53906	-9.677592E-012	0.0037503	6
	44	61	39.72458	10484.92	-30125.31	1	31897.77	-70.80988	4.270867E-010	0.0037536	6
	45	63	31.6723	12510.74	-36418.2	1	38507.19	-71.04088	1.305154E-009	0.0037491	6
	46	64	24.93351	15222.88	-44229.14	1	46775.55	-71.00745	2.982405E-010	0.0037478	6
	47	65	19.86229	18450.65	-53166.68	1	56277.2	-70.86149	7.095429E-010	0.003744	6
	48	67	15.83615	22395.71	-63662.13	1	67486.55	-70.61863	7.665822E-010	0.0037493	6
	49	68	12.40079	27758.47	-77249.77	1	82085.69	-70.23491	1.16729E-009	0.0037449	6
	50	70	9.93114	33530.99	-91907.45	1	97833.1	-69.9563	7.639834E-010	0.0037525	6
	51	71	7.944915	40706.11	-109193.3	1	116534	-69.55508	7.455802E-010	0.0037561	5
	52	73	6.317385	49596.64	-130237.3	1	139361.4	-69.1523	3.326351E-010	0.0037638	5
	53	75	5.008013	60566.77	-155416.4	1	166801.1	-68.70882	5.838861E-010	0.0037593	5
	54	77	3.945707	74397.31	-186209.4	1	200521.6	-68.22153	6.314822E-011	0.0037447	5
	55	80	3.158693	90077.64	-219999.1	1	237725.9	-67.73357	4.576817E-010	0.0037691	5
	56	83	2.504006	110200.5	-261657	1	283916.5	-67.16093	-1.569044E-010	0.0037469	5
	57	86	1.998082	133795	-308388.7	1	336161.7	-66.54631	1.33597E-010	0.0037096	5
	58	89	1.584686	162784.9	-363897.2	1	398647.8	-65.89924	9.427614E-011	0.0037575	5
	59	92	1.266892	197702.8	-427663.7	1	471150.3	-65.18958	1.66193E-010	0.0037058	5
	60	97	0.999041	242031.5	-504784.3	1	559809.3	-64.38345	1.875386E-010	0.0037933	5
