EXPLAIN
TAG	EISPOT
TITLE	LABEL	Potentiostatic EIS	Test &Identifier
DATE	LABEL	11/20/2019	Date
TIME	LABEL	12:18:23	Time
NOTES	NOTES	4	&Notes...
	
	
	
	
PSTAT	PSTAT	REF600-11020	Potentiostat
VDC	POTEN	0.00000E+000	T	DC &Voltage (V)
FREQINIT	QUANT	1.00000E+006	Initial Fre&q. (Hz)
FREQFINAL	QUANT	1.00000E+000	Final Fre&q. (Hz)
PTSPERDEC	QUANT	1.00000E+001	Points/&decade
VAC	QUANT	2.50000E+001	AC &Voltage (mV rms)
AREA	QUANT	1.00000E-002	&Area (cm^2)
CONDIT	TWOPARAM	T	5.00000E+000	0.00000E+000	Conditionin&g	Time(s)	E(V)
DELAY	TWOPARAM	T	5.00000E+000	0.00000E+000	Init. De&lay	Time(s)	Stab.(mV/s)
SPEED	SELECTOR	1	&Optimize for:
ZGUESS	QUANT	1.00000E+005	E&stimated Z (ohms)
OCVCURVE	TABLE	19
	Pt	T	Vf	Vm	Ach	Over
	#	s	V vs. Ref.	V	V	bits
	0	0.258333	6.05246E-003	6.05246E-003	5.19366E-004	...........
	1	0.516667	6.04897E-003	5.86983E-003	5.13000E-004	...........
	2	0.775	6.02773E-003	5.70653E-003	5.16000E-004	...........
	3	1.03333	5.96865E-003	5.56922E-003	5.14400E-004	...........
	4	1.29167	5.86596E-003	5.44724E-003	5.13933E-004	...........
	5	1.55	5.73543E-003	5.34489E-003	5.13300E-004	...........
	6	1.80833	5.59961E-003	5.24796E-003	5.13600E-004	...........
	7	2.06667	5.47345E-003	5.16935E-003	5.15100E-004	...........
	8	2.325	5.36213E-003	5.09274E-003	5.15533E-004	...........
	9	2.58333	5.26529E-003	5.03504E-003	5.15600E-004	...........
	10	2.84167	5.18075E-003	4.96362E-003	5.18866E-004	...........
	11	3.1	5.10599E-003	4.91918E-003	5.20733E-004	...........
	12	3.35833	5.03888E-003	4.86574E-003	5.19000E-004	...........
	13	3.61667	4.97844E-003	4.83099E-003	5.22066E-004	...........
	14	3.875	4.92440E-003	4.78402E-003	5.16766E-004	...........
	15	4.13333	4.87574E-003	4.73489E-003	5.15933E-004	...........
	16	4.39167	4.82887E-003	4.62389E-003	5.17600E-004	...........
	17	4.65	4.78032E-003	4.73776E-003	5.18733E-004	...........
	18	4.90833	4.73542E-003	4.65829E-003	5.24433E-004	...........
EOC	QUANT	0.0047354	Open Circuit (V)
PSTATMODEL	IQUANT	4	Pstat Model
PSTATSECTION	LABEL	REF600-11020	Pstat Section
PSTATSERIALNO	LABEL	11020	Pstat Serial Number
CTRLMODE	IQUANT	1	Control Mode
IESTAB	IQUANT	0	I/E Stability
CASPEED	IQUANT	1	Control Amp Speed
CONVENTION	IQUANT	1	Current Convention
ICHRANGE	IQUANT	2	Ich Range
ICHRANGEMODE	TOGGLE	F	Ich Auto Range
ICHOFFSETENABLE	TOGGLE	T	Ich Offset Enable
ICHOFFSET	QUANT	0	Ich Offset (V)
ICHFILTER	IQUANT	3	Ich Filter
VCHRANGE	IQUANT	2	Vch Range
VCHRANGEMODE	TOGGLE	F	Vch Auto Range
VCHOFFSETENABLE	TOGGLE	T	Vch Offset Enable
VCHOFFSET	QUANT	0	Vch Offset (V)
VCHFILTER	IQUANT	3	Vch Filter
ACHRANGE	IQUANT	2	Ach Range
ACHOFFSETENABLE	TOGGLE	F	Ach Offset Enable
ACHOFFSET	QUANT	0	Ach Offset (V)
ACHFILTER	IQUANT	3	Ach Filter
IERANGELOWERLIMIT	IQUANT	1	I/E Range Lower Limit
IERANGEMODE	TOGGLE	F	I/E AutoRange
IERANGE	IQUANT	4	I/E Range
POSFEEDENABLE	TOGGLE	F	Positive Feedback IR Comp
POSFEEDRESISTANCE	QUANT	0	Positive Feedback Resistance (ohm)
ACHSELECT	IQUANT	0	Ach Select
CABLEID	IQUANT	14	Cable ID
DCCALDATE	LABEL	8/19/2019	DC Calibration Date
ACCALDATE	LABEL	8/19/2019	AC Calibration Date
THERMOSELECT	IQUANT	1	Thermo Select
FRAMEWORKVERSION	QUANT	6.33	Framework Version
INSTRUMENTVERSION	LABEL	3.50	Instrument Version
ZCURVE	TABLE
	Pt	Time	Freq	Zreal	Zimag	Zsig	Zmod	Zphz	Idc	Vdc	IERange
	#	s	Hz	ohm	ohm	V	ohm	°	A	V	#
	0	1	1000078	2185.614	-2011.844	1	2970.593	-42.62937	1.261037E-007	0.0075078	8
	1	3	794390.6	2602.431	-2056.12	1	3316.667	-38.31144	-7.930506E-008	0.0062915	8
	2	4	630984.4	3012.092	-2030.406	1	3632.527	-33.98332	-6.311512E-006	0.0074409	8
	3	5	501234.4	3409.593	-1948.585	1	3927.125	-29.74801	2.836151E-006	0.005971	8
	4	7	398109.4	3751.148	-1844.674	1	4180.184	-26.18623	-8.746962E-007	0.0060897	8
	5	8	316265.6	4040.905	-1685.722	1	4378.421	-22.64417	7.115542E-007	0.0066924	8
	6	9	251203.1	4297.291	-1528.426	1	4561.008	-19.57905	-2.269553E-006	0.0062414	8
	7	11	199546.9	4506.125	-1376.362	1	4711.638	-16.9849	-5.253655E-007	0.0060624	8
	8	12	158578.1	4661.095	-1185.201	1	4809.419	-14.26655	6.199301E-006	0.0056352	8
	9	13	125953.1	4836.199	-1053.813	1	4949.681	-12.29267	1.129635E-006	0.0077156	7
	10	15	100078.1	4938.082	-965.904	1	5031.662	-11.0675	-2.968631E-007	0.0054813	7
	11	16	79453.13	5033.669	-909.3685	1	5115.151	-10.24044	-1.003661E-006	0.0067868	7
	12	18	63140.62	5114.363	-864.5024	1	5186.914	-9.59426	-2.933282E-007	0.0054773	7
	13	19	50203.12	5205.639	-840.9568	1	5273.129	-9.176696	1.063136E-006	0.0051939	7
	14	20	39890.62	5289.222	-831.718	1	5354.215	-8.936453	9.465032E-007	0.0046599	7
	15	22	31640.63	5367.349	-836.1035	1	5432.081	-8.854139	1.126427E-007	0.0049636	7
	16	23	25171.88	5447.96	-858.3783	1	5515.169	-8.953889	7.5278E-007	0.0045734	7
	17	24	20015.62	5537.201	-901.113	1	5610.044	-9.243172	-1.006147E-006	0.0067811	7
	18	26	15890.62	5632.576	-966.291	1	5714.861	-9.73456	-1.055585E-006	0.0078424	7
	19	27	12609.37	5737.246	-1026.605	1	5828.371	-10.14496	-1.171975E-006	0.0073233	7
	20	28	10078.13	5849.89	-1127.409	1	5957.539	-10.90848	8.0627E-007	0.0060638	7
	21	30	8015.625	5961.693	-1249.651	1	6091.257	-11.83856	8.050355E-007	0.0060619	7
	22	31	6328.125	6108.314	-1381.296	1	6262.546	-12.7422	1.050463E-006	0.0048741	7
	23	33	5015.625	6253.462	-1548.653	1	6442.369	-13.9093	9.84313E-007	0.0055919	7
	24	34	3984.375	6429.233	-1751.879	1	6663.642	-15.24228	1.051349E-006	0.0048715	7
	25	36	3170.956	6614.802	-1935.845	1	6892.25	-16.3123	5.867291E-007	0.0064778	7
	26	37	2527.573	6820.852	-2175.69	1	7159.445	-17.69145	7.485214E-007	0.0045692	7
	27	38	1976.103	7077.327	-2491.002	1	7502.909	-19.39051	4.605732E-007	0.0046735	7
	28	40	1577.524	7355.357	-2775.022	1	7861.427	-20.67044	4.60925E-007	0.0046715	7
	29	41	1265.625	7600.932	-3147.495	1	8226.839	-22.49412	1.067238E-006	0.005181	7
	30	43	998.264	7911.598	-3595.188	1	8690.153	-24.438	4.676491E-007	0.004668	7
	31	44	796.875	8216.821	-4086.182	1	9176.766	-26.44092	1.033416E-007	0.0049554	7
	32	45	627.7902	8556.371	-4696.35	1	9760.49	-28.76114	1.593769E-008	0.0078382	6
	33	47	505.5147	8862.791	-5382.544	1	10369.23	-31.27112	-1.960528E-007	0.0078883	6
	34	48	397.9953	9213.182	-6331.276	1	11178.9	-34.49675	7.249987E-010	0.0062379	6
	35	49	315.5048	9574.12	-7482.115	1	12150.96	-38.0074	4.982724E-010	0.0062369	6
	36	51	252.4038	9951.71	-8859.258	1	13323.77	-41.67628	7.402522E-010	0.0062352	6
	37	52	198.6229	10409.8	-10707.17	1	14933.43	-45.80679	2.341349E-010	0.0062393	6
	38	54	158.3615	10920.92	-12887.94	1	16892.76	-49.7229	6.218536E-010	0.0062385	6
	39	55	125.558	11569.84	-15660.5	1	19470.81	-53.54334	5.981067E-010	0.0062394	6
	40	56	100.4464	12310.84	-18914.73	1	22568.21	-56.94151	4.075256E-010	0.0062278	6
	41	58	79.00281	13431.52	-23229.2	1	26832.84	-59.96277	-5.630087E-010	0.0062273	6
	42	59	63.3446	14833.54	-28329.39	1	31977.94	-62.36302	-1.290009E-010	0.0062354	6
	43	60	49.86702	16273.73	-34567.96	1	38207.04	-64.79012	-3.097252E-010	0.0062353	6
	44	62	39.72458	18630.58	-42005.38	1	45951.61	-66.08135	1.941675E-011	0.0062432	6
	45	63	31.6723	21649.53	-50830.43	1	55248.84	-66.93004	2.887529E-011	0.0062367	6
	46	65	24.93351	25617.66	-62150.59	1	67223.21	-67.59918	-8.524224E-011	0.0062361	6
	47	66	19.86229	30569.08	-74923.85	1	80920.04	-67.80444	8.763008E-010	0.0062438	6
	48	67	15.83615	37311.15	-90562.23	1	97947.1	-67.6086	-2.3352E-009	0.0062384	6
	49	69	12.40079	46968.76	-108928.5	1	118623.3	-66.67484	-1.476831E-009	0.0062419	5
	50	70	9.93114	56549.75	-128013.5	1	139947.6	-66.16663	2.395196E-010	0.006241	5
	51	72	7.944915	69639.05	-149387.4	1	164821.7	-65.00675	-5.390151E-010	0.0062336	5
	52	73	6.317385	85055.85	-175069.7	1	194637.8	-64.08766	4.509877E-010	0.0062311	5
	53	76	5.008013	103673.2	-203845.5	1	228694.4	-63.04269	1.702201E-010	0.006244	5
	54	78	3.945707	125238.4	-237279.3	1	268302.3	-62.17445	-6.937709E-011	0.0062348	5
	55	81	3.158693	147303.1	-272832	1	310057.3	-61.63522	2.198706E-010	0.0062491	5
	56	84	2.504006	172430.9	-316082.6	1	360056.4	-61.38644	-5.955141E-011	0.006222	5
	57	87	1.998082	198513.3	-365194.7	1	415661.7	-61.47229	-5.567133E-011	0.0062402	5
	58	90	1.584686	229137	-426624.1	1	484264.3	-61.76005	1.240762E-010	0.0062868	5
	59	94	1.266892	260758.8	-496904.3	1	561167.6	-62.31101	-2.740676E-011	0.006256	5
	60	98	0.999041	299720.6	-588951.4	1	660829.9	-63.02821	1.840994E-010	0.0062287	5
