EXPLAIN
TAG	EISPOT
TITLE	LABEL	Potentiostatic EIS	Test &Identifier
DATE	LABEL	11/9/2019	Date
TIME	LABEL	9:43:47	Time
NOTES	NOTES	2	&Notes...
	
	
PSTAT	PSTAT	REF600-11020	Potentiostat
VDC	POTEN	0.00000E+000	T	DC &Voltage (V)
FREQINIT	QUANT	1.00000E+006	Initial Fre&q. (Hz)
FREQFINAL	QUANT	1.00000E+000	Final Fre&q. (Hz)
PTSPERDEC	QUANT	1.00000E+001	Points/&decade
VAC	QUANT	2.50000E+001	AC &Voltage (mV rms)
AREA	QUANT	1.00000E-002	&Area (cm^2)
CONDIT	TWOPARAM	T	5.00000E+000	0.00000E+000	Conditionin&g	Time(s)	E(V)
DELAY	TWOPARAM	T	5.00000E+000	0.00000E+000	Init. De&lay	Time(s)	Stab.(mV/s)
SPEED	SELECTOR	0	&Optimize for:
ZGUESS	QUANT	1.00000E+005	E&stimated Z (ohms)
OCVCURVE	TABLE	19
	Pt	T	Vf	Vm	Ach	Over
	#	s	V vs. Ref.	V	V	bits
	0	0.258333	5.54823E-003	5.54823E-003	5.56799E-004	...........
	1	0.516667	5.54584E-003	5.42323E-003	5.67132E-004	...........
	2	0.775	5.53334E-003	5.41815E-003	5.62232E-004	...........
	3	1.03333	5.50447E-003	5.37540E-003	5.61832E-004	...........
	4	1.29167	5.46672E-003	5.49833E-003	5.63799E-004	...........
	5	1.55	5.43982E-003	5.48188E-003	5.61966E-004	...........
	6	1.80833	5.43878E-003	5.57320E-003	5.63399E-004	...........
	7	2.06667	5.46623E-003	5.75629E-003	5.66532E-004	...........
	8	2.325	5.52471E-003	5.93757E-003	5.63466E-004	...........
	9	2.58333	5.62016E-003	6.02822E-003	5.64966E-004	...........
	10	2.84167	5.74437E-003	6.04217E-003	5.64466E-004	...........
	11	3.1	5.87056E-003	6.14054E-003	5.69166E-004	...........
	12	3.35833	5.97588E-003	6.18531E-003	5.69166E-004	...........
	13	3.61667	6.05580E-003	6.15241E-003	5.67932E-004	...........
	14	3.875	6.11332E-003	6.20417E-003	5.65466E-004	...........
	15	4.13333	6.15037E-003	6.16753E-003	5.68932E-004	...........
	16	4.39167	6.17155E-003	6.23359E-003	5.69666E-004	...........
	17	4.65	6.18468E-003	6.20587E-003	5.66999E-004	...........
	18	4.90833	6.19637E-003	6.25465E-003	5.67399E-004	...........
EOC	QUANT	0.0061964	Open Circuit (V)
PSTATMODEL	IQUANT	4	Pstat Model
PSTATSECTION	LABEL	REF600-11020	Pstat Section
PSTATSERIALNO	LABEL	11020	Pstat Serial Number
CTRLMODE	IQUANT	1	Control Mode
IESTAB	IQUANT	0	I/E Stability
CASPEED	IQUANT	1	Control Amp Speed
CONVENTION	IQUANT	1	Current Convention
ICHRANGE	IQUANT	2	Ich Range
ICHRANGEMODE	TOGGLE	F	Ich Auto Range
ICHOFFSETENABLE	TOGGLE	T	Ich Offset Enable
ICHOFFSET	QUANT	0	Ich Offset (V)
ICHFILTER	IQUANT	3	Ich Filter
VCHRANGE	IQUANT	2	Vch Range
VCHRANGEMODE	TOGGLE	F	Vch Auto Range
VCHOFFSETENABLE	TOGGLE	T	Vch Offset Enable
VCHOFFSET	QUANT	0	Vch Offset (V)
VCHFILTER	IQUANT	3	Vch Filter
ACHRANGE	IQUANT	2	Ach Range
ACHOFFSETENABLE	TOGGLE	F	Ach Offset Enable
ACHOFFSET	QUANT	0	Ach Offset (V)
ACHFILTER	IQUANT	3	Ach Filter
IERANGELOWERLIMIT	IQUANT	1	I/E Range Lower Limit
IERANGEMODE	TOGGLE	F	I/E AutoRange
IERANGE	IQUANT	5	I/E Range
POSFEEDENABLE	TOGGLE	F	Positive Feedback IR Comp
POSFEEDRESISTANCE	QUANT	0	Positive Feedback Resistance (ohm)
ACHSELECT	IQUANT	0	Ach Select
CABLEID	IQUANT	14	Cable ID
DCCALDATE	LABEL	8/19/2019	DC Calibration Date
ACCALDATE	LABEL	8/19/2019	AC Calibration Date
THERMOSELECT	IQUANT	1	Thermo Select
FRAMEWORKVERSION	QUANT	6.33	Framework Version
INSTRUMENTVERSION	LABEL	3.50	Instrument Version
ZCURVE	TABLE
	Pt	Time	Freq	Zreal	Zimag	Zsig	Zmod	Zphz	Idc	Vdc	IERange
	#	s	Hz	ohm	ohm	V	ohm	°	A	V	#
	0	1	1000078	2068.372	-1204.875	1	2393.718	-30.22181	-2.73158E-006	0.009489	8
	1	2	794390.6	2298.422	-1148.185	1	2569.255	-26.54458	1.218205E-005	0.0070256	8
	2	2	630984.4	2488.234	-1075.808	1	2710.843	-23.38163	-6.734604E-006	0.0088761	8
	3	2	501234.4	2650.746	-964.842	1	2820.882	-20.00094	5.756929E-007	0.0075976	8
	4	3	398109.4	2792.974	-885.2189	1	2929.9	-17.58574	-3.32641E-006	0.0077894	8
	5	3	316265.6	2890.476	-803.4456	1	3000.063	-15.53397	3.172581E-006	0.0071663	8
	6	3	251203.1	2989.508	-719.4288	1	3074.855	-13.53101	2.195095E-006	0.0082051	8
	7	4	199546.9	3067.521	-664.7792	1	3138.728	-12.22779	-1.70458E-006	0.0083462	8
	8	4	158578.1	3098.303	-615.9977	1	3158.945	-11.24479	-1.002008E-006	0.0083736	8
	9	4	125953.1	3231.519	-537.9354	1	3275.987	-9.451091	4.414082E-006	0.0025737	7
	10	5	100078.1	3267.049	-516.5444	1	3307.632	-8.984511	8.988022E-008	0.0089426	7
	11	5	79453.13	3322.206	-506.9049	1	3360.655	-8.675327	9.98304E-007	0.0075188	7
	12	5	63140.62	3370.479	-513.386	1	3409.354	-8.660633	-1.474084E-006	0.0095547	7
	13	6	50203.12	3426.941	-531.0318	1	3467.841	-8.808381	5.655841E-007	0.0058173	7
	14	6	39890.62	3485.491	-553.988	1	3529.242	-9.031115	9.86654E-007	0.007529	7
	15	6	31640.63	3538.248	-586.4178	1	3586.514	-9.410476	-8.666532E-007	0.0076109	7
	16	7	25171.88	3611.847	-630.3558	1	3666.441	-9.89981	4.742857E-007	0.0084063	7
	17	7	20015.62	3672.672	-672.775	1	3733.784	-10.38058	-3.386516E-007	0.0094112	7
	18	7	15890.62	3739.338	-748.0591	1	3813.429	-11.31275	-3.292832E-007	0.009408	7
	19	7	12609.37	3822.357	-826.8294	1	3910.762	-12.20582	5.723366E-007	0.0058087	7
	20	8	10078.13	3898.998	-922.4928	1	4006.641	-13.31126	-1.252703E-006	0.0084183	7
	21	8	8015.625	4000.561	-1025.389	1	4129.88	-14.37607	7.540941E-007	0.0080066	7
	22	8	6328.125	4096.871	-1161.201	1	4258.255	-15.82464	9.124361E-007	0.0056825	7
	23	9	5015.625	4199.163	-1320.997	1	4402.045	-17.46284	9.985032E-008	0.0089272	7
	24	9	3984.375	4312.661	-1513.281	1	4570.456	-19.33559	1.293504E-006	0.0060368	7
	25	9	3170.956	4423.65	-1737.567	1	4752.665	-21.44443	1.165941E-006	0.0057735	7
	26	10	2527.573	4542.636	-2018.064	1	4970.727	-23.95316	-3.473841E-007	0.0094106	7
	27	10	1976.103	4685.815	-2388.541	1	5259.467	-27.00969	8.669227E-008	0.0089232	7
	28	10	1577.524	4831.602	-2815.244	1	5591.956	-30.2282	1.339706E-007	0.0061552	7
	29	11	1265.625	4977.405	-3295.07	1	5969.258	-33.50478	4.787488E-007	0.008396	7
	30	11	998.264	5157.646	-3984.129	1	6517.254	-37.68502	4.758141E-007	0.008391	7
	31	11	796.875	5354.459	-4749.34	1	7157.266	-41.57264	4.879481E-007	0.0083884	7
	32	12	627.7902	5604.871	-5786.919	1	8056.241	-45.91555	5.716211E-007	0.0057939	7
	33	12	505.5147	5838.819	-6939.8	1	9069.324	-49.92433	1.16654E-006	0.0057674	7
	34	12	397.9953	6209.224	-8483.559	1	10513.1	-53.79913	5.781939E-010	0.0078109	7
	35	13	315.5048	6633.524	-10335.65	1	12281.26	-57.30725	2.688722E-010	0.0077476	6
	36	13	252.4038	7129.25	-12526.28	1	14412.98	-60.35392	1.198521E-009	0.0077467	6
	37	13	198.6229	7799.888	-15383.32	1	17247.74	-63.11337	-2.671048E-010	0.0077461	6
	38	14	158.3615	8590.445	-18737.21	1	20612.59	-65.36998	1.313794E-010	0.0077379	6
	39	14	125.558	9587.01	-22891.42	1	24817.89	-67.27589	7.552294E-010	0.0077437	6
	40	14	100.4464	10861.04	-27679.38	1	29734	-68.57558	-9.712484E-010	0.0077381	6
	41	15	79.00281	12756.31	-34136.79	1	36442.34	-69.51019	-1.343134E-010	0.0077398	6
	42	15	63.3446	13525.68	-41541.96	1	43688.43	-71.96523	1.406817E-009	0.0077368	6
	43	15	49.86702	16772.56	-50470.88	1	53184.86	-71.61725	1.27438E-010	0.0077294	6
	44	16	39.72458	21083.5	-61652.88	1	65158.2	-71.1208	-7.38297E-010	0.0077472	6
	45	16	31.6723	26580.15	-74803.35	1	79385.42	-70.43816	-1.414587E-009	0.0077391	6
	46	16	24.93351	33035.01	-90277.58	1	96132	-69.90105	2.209292E-010	0.0077404	6
	47	17	19.86229	41312.76	-108041.3	1	115670.5	-69.07418	9.9555E-011	0.0077417	5
	48	17	15.83615	54578.18	-128016.9	1	139165.8	-66.90972	2.309325E-009	0.0077451	5
	49	17	12.40079	69651.59	-152829.9	1	167953.4	-65.49908	-1.198855E-009	0.0077451	5
	50	18	9.93114	87549.34	-179768.4	1	199953.9	-64.03337	4.824957E-010	0.0077407	5
	51	18	7.944915	109226	-208117.4	1	235038.7	-62.30822	-2.164923E-010	0.0077396	5
	52	19	6.317385	136117.8	-236847.5	1	273175.4	-60.11375	5.606805E-011	0.0077383	5
	53	20	5.008013	167659.4	-269181.8	1	317125.3	-58.08335	3.150943E-010	0.0077545	5
	54	21	3.945707	203482.4	-302913.2	1	364913	-56.10872	5.684105E-011	0.0077403	5
	55	22	3.158693	242164.8	-337745.3	1	415590.8	-54.35931	5.016385E-011	0.0077191	5
	56	24	2.504006	283580	-376890.8	1	471661.2	-53.04148	2.233625E-010	0.0077348	5
	57	25	1.998082	324840.2	-417952.8	1	529344.6	-52.14503	-3.193155E-011	0.0077089	5
	58	27	1.584686	369981.5	-468807.7	1	597216.1	-51.71962	-1.212584E-010	0.0076875	5
	59	29	1.266892	413665.7	-526128.1	1	669275.8	-51.82397	-7.109503E-011	0.0077141	5
	60	31	0.999041	463846	-598629.3	1	757304.5	-52.2298	-4.057008E-011	0.0077468	5
