EXPLAIN
TAG	EISPOT
TITLE	LABEL	Potentiostatic EIS	Test &Identifier
DATE	LABEL	11/7/2019	Date
TIME	LABEL	9:34:46	Time
NOTES	NOTES	2	&Notes...
	
	
PSTAT	PSTAT	REF600-11020	Potentiostat
VDC	POTEN	0.00000E+000	T	DC &Voltage (V)
FREQINIT	QUANT	1.00000E+006	Initial Fre&q. (Hz)
FREQFINAL	QUANT	1.00000E+000	Final Fre&q. (Hz)
PTSPERDEC	QUANT	1.00000E+001	Points/&decade
VAC	QUANT	2.50000E+001	AC &Voltage (mV rms)
AREA	QUANT	1.00000E-002	&Area (cm^2)
CONDIT	TWOPARAM	T	5.00000E+000	0.00000E+000	Conditionin&g	Time(s)	E(V)
DELAY	TWOPARAM	T	5.00000E+000	0.00000E+000	Init. De&lay	Time(s)	Stab.(mV/s)
SPEED	SELECTOR	1	&Optimize for:
ZGUESS	QUANT	1.00000E+005	E&stimated Z (ohms)
OCVCURVE	TABLE	19
	Pt	T	Vf	Vm	Ach	Over
	#	s	V vs. Ref.	V	V	bits
	0	0.258333	5.11907E-003	5.11907E-003	5.72632E-004	...........
	1	0.516667	5.11759E-003	5.04158E-003	5.73599E-004	...........
	2	0.775	5.10902E-003	4.99531E-003	5.76199E-004	...........
	3	1.03333	5.08598E-003	4.92414E-003	5.84865E-004	...........
	4	1.29167	5.04701E-003	4.91431E-003	5.79965E-004	...........
	5	1.55	5.00060E-003	4.93718E-003	5.80365E-004	...........
	6	1.80833	4.95998E-003	4.87664E-003	5.80965E-004	...........
	7	2.06667	4.93119E-003	4.86838E-003	5.82532E-004	...........
	8	2.325	4.91028E-003	4.88224E-003	5.81132E-004	...........
	9	2.58333	4.89331E-003	4.85149E-003	5.85932E-004	...........
	10	2.84167	4.87993E-003	4.84840E-003	5.80532E-004	...........
	11	3.1	4.86971E-003	4.87961E-003	5.81565E-004	...........
	12	3.35833	4.86400E-003	4.89646E-003	5.81799E-004	...........
	13	3.61667	4.86595E-003	4.89876E-003	5.82265E-004	...........
	14	3.875	4.87507E-003	4.90649E-003	5.83532E-004	...........
	15	4.13333	4.88692E-003	4.92176E-003	5.83232E-004	...........
	16	4.39167	4.89777E-003	4.90437E-003	5.81799E-004	...........
	17	4.65	4.90612E-003	4.93116E-003	5.73699E-004	...........
	18	4.90833	4.91237E-003	4.93799E-003	5.77932E-004	...........
EOC	QUANT	0.0049124	Open Circuit (V)
PSTATMODEL	IQUANT	4	Pstat Model
PSTATSECTION	LABEL	REF600-11020	Pstat Section
PSTATSERIALNO	LABEL	11020	Pstat Serial Number
CTRLMODE	IQUANT	1	Control Mode
IESTAB	IQUANT	0	I/E Stability
CASPEED	IQUANT	1	Control Amp Speed
CONVENTION	IQUANT	1	Current Convention
ICHRANGE	IQUANT	2	Ich Range
ICHRANGEMODE	TOGGLE	F	Ich Auto Range
ICHOFFSETENABLE	TOGGLE	T	Ich Offset Enable
ICHOFFSET	QUANT	0	Ich Offset (V)
ICHFILTER	IQUANT	3	Ich Filter
VCHRANGE	IQUANT	2	Vch Range
VCHRANGEMODE	TOGGLE	F	Vch Auto Range
VCHOFFSETENABLE	TOGGLE	T	Vch Offset Enable
VCHOFFSET	QUANT	0	Vch Offset (V)
VCHFILTER	IQUANT	3	Vch Filter
ACHRANGE	IQUANT	2	Ach Range
ACHOFFSETENABLE	TOGGLE	F	Ach Offset Enable
ACHOFFSET	QUANT	0	Ach Offset (V)
ACHFILTER	IQUANT	3	Ach Filter
IERANGELOWERLIMIT	IQUANT	1	I/E Range Lower Limit
IERANGEMODE	TOGGLE	F	I/E AutoRange
IERANGE	IQUANT	4	I/E Range
POSFEEDENABLE	TOGGLE	F	Positive Feedback IR Comp
POSFEEDRESISTANCE	QUANT	0	Positive Feedback Resistance (ohm)
ACHSELECT	IQUANT	0	Ach Select
CABLEID	IQUANT	14	Cable ID
DCCALDATE	LABEL	8/19/2019	DC Calibration Date
ACCALDATE	LABEL	8/19/2019	AC Calibration Date
THERMOSELECT	IQUANT	1	Thermo Select
FRAMEWORKVERSION	QUANT	6.33	Framework Version
INSTRUMENTVERSION	LABEL	3.50	Instrument Version
ZCURVE	TABLE
	Pt	Time	Freq	Zreal	Zimag	Zsig	Zmod	Zphz	Idc	Vdc	IERange
	#	s	Hz	ohm	ohm	V	ohm	°	A	V	#
	0	1	1000078	2109.926	-1698.584	1	2708.686	-38.83561	5.856573E-006	0.0063008	8
	1	3	794390.6	2392.354	-1710.29	1	2940.824	-35.56091	3.579407E-006	0.0069305	8
	2	4	630984.4	2686.14	-1745.944	1	3203.696	-33.02316	7.301375E-006	0.0058119	8
	3	5	501234.4	2976.843	-1761.194	1	3458.814	-30.60989	6.216421E-006	0.0053497	8
	4	7	398109.4	3290.463	-1750.08	1	3726.919	-28.00692	-7.52043E-006	0.0076165	8
	5	8	316265.6	3609.394	-1752.547	1	4012.375	-25.89897	2.590689E-006	0.0068983	8
	6	10	251203.1	3919.134	-1693.164	1	4269.241	-23.36555	4.237691E-006	0.0065261	8
	7	11	199546.9	4226.283	-1622.996	1	4527.205	-21.00801	-2.163055E-006	0.0066699	8
	8	13	158578.1	4487.79	-1522.88	1	4739.137	-18.74405	6.491589E-006	0.0053754	8
	9	15	125953.1	4767.269	-1295.393	1	4940.131	-15.20173	1.804845E-006	0.0002136	7
	10	16	100078.1	4949.215	-1183.475	1	5088.747	-13.44826	-7.192543E-007	0.0083984	7
	11	17	79453.13	5127.368	-1061.118	1	5236.017	-11.69241	7.388953E-007	0.0067187	7
	12	19	63140.62	5247.7	-928.7508	1	5329.252	-10.03642	9.049327E-007	0.0044092	7
	13	20	50203.12	5323.779	-824.9334	1	5387.313	-8.808082	-1.436935E-006	0.0077919	7
	14	22	39890.62	5434.514	-742.2043	1	5484.962	-7.776906	1.28487E-006	0.0047442	7
	15	23	31640.63	5493.828	-671.8831	1	5534.761	-6.972524	1.151433E-006	0.0044908	7
	16	25	25171.88	5546.137	-623.784	1	5581.106	-6.417191	9.081761E-007	0.0044013	7
	17	26	20015.62	5596.05	-595.6506	1	5627.662	-6.075758	5.539294E-007	0.0045418	7
	18	28	15890.62	5643.438	-591.3167	1	5674.333	-5.981598	9.972961E-007	0.0062123	7
	19	29	12609.37	5655.265	-587.206	1	5685.669	-5.927979	-1.240471E-006	0.007125	7
	20	31	10078.13	5721.763	-612.8442	1	5754.489	-6.113505	9.982344E-007	0.0062066	7
	21	32	8015.625	5722.322	-671.4744	1	5761.583	-6.692652	-1.434768E-006	0.0077756	7
	22	34	6328.125	5795.924	-731.4263	1	5841.894	-7.192515	1.3101E-006	0.0051139	7
	23	35	5015.625	5809.411	-825.1425	1	5867.718	-8.083961	-1.286865E-006	0.0084049	7
	24	36	3984.375	5877.612	-948.1421	1	5953.596	-9.163678	1.285354E-006	0.0047356	7
	25	38	3170.956	5906.687	-1112.848	1	6010.605	-10.66972	-1.873542E-006	0.006622	8
	26	39	2527.573	5953.762	-1308.361	1	6095.826	-12.39395	-8.693271E-007	0.0063256	7
	27	41	1976.103	6034.811	-1579.801	1	6238.166	-14.66978	9.081479E-007	0.0043942	7
	28	42	1577.524	6178.403	-1830.78	1	6443.944	-16.50557	9.026691E-007	0.0043995	7
	29	44	1265.625	6205.682	-2259.849	1	6604.348	-20.0095	7.444805E-007	0.0067104	7
	30	45	998.264	6289.634	-2743.527	1	6861.956	-23.56674	-1.044225E-006	0.0084828	7
	31	46	796.875	6404.443	-3315.447	1	7211.732	-27.36966	-1.446445E-006	0.0082221	7
	32	48	627.7902	6548.078	-4067.633	1	7708.629	-31.84834	-3.808461E-007	0.0055149	7
	33	49	505.5147	6725.153	-4942.178	1	8345.826	-36.31141	9.998881E-007	0.0062115	7
	34	51	397.9953	6915.865	-6056.246	1	9192.785	-41.20874	3.569952E-009	0.0065191	7
	35	52	315.5048	7163.133	-7429.715	1	10320.42	-46.04656	9.664605E-011	0.0064611	6
	36	53	252.4038	7453.374	-9056.604	1	11729.23	-50.54642	1.317164E-011	0.0064609	6
	37	55	198.6229	7842.584	-11215.32	1	13685.38	-55.03589	9.865767E-010	0.0064561	6
	38	56	158.3615	8315.394	-13736.31	1	16057.15	-58.81102	1.311223E-009	0.0064555	6
	39	58	125.558	8933.461	-16906.81	1	19121.9	-62.14829	8.603002E-010	0.006446	6
	40	59	100.4464	9680.26	-20655.31	1	22811.17	-64.88953	2.77151E-010	0.0064555	6
	41	60	79.00281	10766.14	-25503.98	1	27683.26	-67.11366	8.228437E-010	0.0064443	6
	42	62	63.3446	12201.45	-30766.94	1	33098.04	-68.36789	8.864397E-010	0.0064526	6
	43	63	49.86702	14143.71	-38653.82	1	41160.2	-69.90207	1.672948E-009	0.0064468	6
	44	65	39.72458	16370.13	-46925.12	1	49698.57	-70.76835	8.16979E-010	0.0064506	6
	45	66	31.6723	19351.12	-57095.57	1	60285.73	-71.27719	5.195657E-010	0.0064517	6
	46	67	24.93351	23844.93	-69960.66	1	73912.62	-71.17918	7.26587E-010	0.0064499	6
	47	69	19.86229	29618.34	-84588.42	1	89623.92	-70.70248	1.321085E-009	0.0064503	6
	48	70	15.83615	36995.68	-102287.7	1	108772.5	-70.11584	1.324993E-009	0.0064605	5
	49	72	12.40079	47761.11	-123502.1	1	132415.6	-68.85736	1.511951E-009	0.0064402	5
	50	73	9.93114	59777.09	-146783.4	1	158488.7	-67.84155	2.200106E-010	0.0064657	5
	51	75	7.944915	75551.05	-173145.5	1	188910.8	-66.42622	3.436849E-010	0.006457	5
	52	76	6.317385	95733.4	-201719.6	1	223283.9	-64.61162	-2.054995E-010	0.0064559	5
	53	78	5.008013	120781	-234823.7	1	264064.8	-62.78108	-6.611132E-011	0.0064465	5
	54	81	3.945707	151374.5	-270731	1	310176.6	-60.78903	4.262261E-010	0.0064686	5
	55	83	3.158693	184561.5	-307454.3	1	358596	-59.02406	1.190375E-011	0.006436	5
	56	87	2.504006	222904.1	-348325.1	1	413541.5	-57.38354	2.036277E-010	0.006457	5
	57	90	1.998082	263032.5	-391079.6	1	471306	-56.07599	4.531638E-010	0.0064302	5
	58	93	1.584686	308954.1	-441313.1	1	538711.3	-55.00494	-1.357358E-011	0.0064143	5
	59	96	1.266892	354558	-494061.4	1	608118.4	-54.33529	2.533812E-010	0.0064159	5
	60	101	0.999041	406476.4	-561254.4	1	692986	-54.08688	-7.195136E-011	0.0064732	5
