EXPLAIN
TAG	EISPOT
TITLE	LABEL	Potentiostatic EIS	Test &Identifier
DATE	LABEL	10/12/2019	Date
TIME	LABEL	11:20:30	Time
NOTES	NOTES	1	&Notes...
	
PSTAT	PSTAT	REF600-11020	Potentiostat
VDC	POTEN	0.00000E+000	T	DC &Voltage (V)
FREQINIT	QUANT	1.00000E+006	Initial Fre&q. (Hz)
FREQFINAL	QUANT	1.00000E+000	Final Fre&q. (Hz)
PTSPERDEC	QUANT	1.00000E+001	Points/&decade
VAC	QUANT	2.50000E+001	AC &Voltage (mV rms)
AREA	QUANT	1.00000E-002	&Area (cm^2)
CONDIT	TWOPARAM	T	5.00000E+000	0.00000E+000	Conditionin&g	Time(s)	E(V)
DELAY	TWOPARAM	T	5.00000E+000	0.00000E+000	Init. De&lay	Time(s)	Stab.(mV/s)
SPEED	SELECTOR	1	&Optimize for:
ZGUESS	QUANT	1.00000E+004	E&stimated Z (ohms)
OCVCURVE	TABLE	19
	Pt	T	Vf	Vm	Ach	Over
	#	s	V vs. Ref.	V	V	bits
	0	0.258333	4.74706E-003	4.74706E-003	5.56266E-004	...........
	1	0.516667	4.74516E-003	4.64738E-003	5.50999E-004	...........
	2	0.775	4.73292E-003	4.52426E-003	5.50099E-004	...........
	3	1.03333	4.69756E-003	4.46311E-003	5.53699E-004	...........
	4	1.29167	4.63593E-003	4.42501E-003	5.52733E-004	...........
	5	1.55	4.56049E-003	4.33663E-003	5.57933E-004	...........
	6	1.80833	4.48532E-003	4.26664E-003	5.58799E-004	...........
	7	2.06667	4.41433E-003	4.21768E-003	5.58066E-004	...........
	8	2.325	4.34615E-003	4.14558E-003	5.57099E-004	...........
	9	2.58333	4.27964E-003	4.05257E-003	5.48766E-004	...........
	10	2.84167	4.21131E-003	3.93891E-003	5.50166E-004	...........
	11	3.1	4.13557E-003	3.86484E-003	5.45433E-004	...........
	12	3.35833	4.05214E-003	3.84998E-003	5.46466E-004	...........
	13	3.61667	3.97182E-003	3.87117E-003	5.49799E-004	...........
	14	3.875	3.91090E-003	3.88157E-003	5.48799E-004	...........
	15	4.13333	3.87889E-003	3.91217E-003	5.56133E-004	...........
	16	4.39167	3.87373E-003	3.95160E-003	5.52899E-004	...........
	17	4.65	3.88797E-003	3.99318E-003	5.52366E-004	...........
	18	4.90833	3.91431E-003	3.99714E-003	5.54933E-004	...........
EOC	QUANT	0.0039143	Open Circuit (V)
PSTATMODEL	IQUANT	4	Pstat Model
PSTATSECTION	LABEL	REF600-11020	Pstat Section
PSTATSERIALNO	LABEL	11020	Pstat Serial Number
CTRLMODE	IQUANT	1	Control Mode
IESTAB	IQUANT	0	I/E Stability
CASPEED	IQUANT	1	Control Amp Speed
CONVENTION	IQUANT	1	Current Convention
ICHRANGE	IQUANT	2	Ich Range
ICHRANGEMODE	TOGGLE	F	Ich Auto Range
ICHOFFSETENABLE	TOGGLE	T	Ich Offset Enable
ICHOFFSET	QUANT	0	Ich Offset (V)
ICHFILTER	IQUANT	3	Ich Filter
VCHRANGE	IQUANT	2	Vch Range
VCHRANGEMODE	TOGGLE	F	Vch Auto Range
VCHOFFSETENABLE	TOGGLE	T	Vch Offset Enable
VCHOFFSET	QUANT	0	Vch Offset (V)
VCHFILTER	IQUANT	3	Vch Filter
ACHRANGE	IQUANT	2	Ach Range
ACHOFFSETENABLE	TOGGLE	F	Ach Offset Enable
ACHOFFSET	QUANT	0	Ach Offset (V)
ACHFILTER	IQUANT	3	Ach Filter
IERANGELOWERLIMIT	IQUANT	1	I/E Range Lower Limit
IERANGEMODE	TOGGLE	F	I/E AutoRange
IERANGE	IQUANT	5	I/E Range
POSFEEDENABLE	TOGGLE	F	Positive Feedback IR Comp
POSFEEDRESISTANCE	QUANT	0	Positive Feedback Resistance (ohm)
ACHSELECT	IQUANT	0	Ach Select
CABLEID	IQUANT	14	Cable ID
DCCALDATE	LABEL	8/19/2019	DC Calibration Date
ACCALDATE	LABEL	8/19/2019	AC Calibration Date
THERMOSELECT	IQUANT	1	Thermo Select
FRAMEWORKVERSION	QUANT	6.33	Framework Version
INSTRUMENTVERSION	LABEL	3.50	Instrument Version
ZCURVE	TABLE
	Pt	Time	Freq	Zreal	Zimag	Zsig	Zmod	Zphz	Idc	Vdc	IERange
	#	s	Hz	ohm	ohm	V	ohm	°	A	V	#
	0	1	1000078	2499.377	-1773.755	1	3064.816	-35.36251	9.316798E-006	0.0052978	8
	1	3	794390.6	2850.265	-1753.542	1	3346.479	-31.60069	6.653164E-007	0.005196	8
	2	5	630984.4	3182.652	-1642.919	1	3581.684	-27.30327	-3.460943E-007	0.0056829	8
	3	6	501234.4	3475.784	-1492.749	1	3782.773	-23.24212	5.573801E-007	0.0057497	8
	4	8	398109.4	3690.635	-1322.973	1	3920.592	-19.72111	-2.077776E-006	0.0061515	8
	5	9	316265.6	3884.275	-1141.333	1	4048.486	-16.3746	-6.367003E-007	0.005887	8
	6	11	251203.1	4024.988	-1006.851	1	4149.009	-14.04433	1.756448E-006	0.0051956	8
	7	12	199546.9	4119.146	-840.6226	1	4204.047	-11.53436	-1.389553E-006	0.0057946	8
	8	14	158578.1	4202.999	-759.8656	1	4271.135	-10.24788	-3.948654E-006	0.0063007	8
	9	15	125953.1	4267.109	-600.1108	1	4309.102	-8.005367	1.001948E-006	0.0034044	7
	10	17	100078.1	4311.287	-545.5754	1	4345.669	-7.212207	-3.40789E-008	0.005531	7
	11	18	79453.13	4367.539	-488.1276	1	4394.731	-6.377063	-1.508097E-008	0.0055629	7
	12	19	63140.62	4397.114	-457.7809	1	4420.879	-5.943618	-1.54998E-008	0.0055042	7
	13	21	50203.12	4426.793	-426.8577	1	4447.326	-5.507771	-7.328732E-008	0.0057601	7
	14	22	39890.62	4460.909	-428.2594	1	4481.418	-5.483746	-3.077216E-008	0.0055173	7
	15	24	31640.63	4505.389	-430.3314	1	4525.894	-5.456043	3.614945E-008	0.0054768	7
	16	25	25171.88	4548.324	-434.4009	1	4569.021	-5.455653	2.017228E-008	0.0056248	7
	17	26	20015.62	4587.919	-476.046	1	4612.55	-5.923856	7.880997E-008	0.0053668	7
	18	28	15890.62	4635.151	-485.9183	1	4660.552	-5.984647	-5.260795E-008	0.0056245	7
	19	29	12609.37	4686.917	-527.3755	1	4716.495	-6.419962	2.640904E-008	0.0054516	7
	20	30	10078.13	4730.891	-577.2525	1	4765.979	-6.956711	7.819424E-008	0.0053768	7
	21	32	8015.625	4782.673	-642.1004	1	4825.583	-7.646554	4.435837E-008	0.0053946	7
	22	33	6328.125	4827.498	-723.9039	1	4881.472	-8.528203	1.211336E-008	0.0054451	7
	23	34	5015.625	4870.197	-810.621	1	4937.198	-9.449977	7.432654E-008	0.0053753	7
	24	36	3984.375	4939.107	-931.8827	1	5026.25	-10.68464	-6.109039E-008	0.0056453	7
	25	37	3170.956	4997.987	-1074.421	1	5112.167	-12.13227	-6.758891E-010	0.0055054	7
	26	39	2527.573	5054.015	-1266	1	5210.166	-14.06288	1.668166E-009	0.0054748	7
	27	40	1976.103	5117.526	-1510.846	1	5335.89	-16.44817	9.662175E-008	0.0054428	7
	28	41	1577.524	5204.095	-1805.004	1	5508.234	-19.12874	6.044026E-008	0.0054327	7
	29	43	1265.625	5280.448	-2142.32	1	5698.479	-22.08279	3.927957E-008	0.0054762	7
	30	44	998.264	5394.378	-2600.002	1	5988.266	-25.73331	-4.503645E-008	0.0056216	7
	31	45	796.875	5496.089	-3138.314	1	6328.982	-29.72673	-1.335926E-007	0.0055556	8
	32	47	627.7902	5650.087	-3846.78	1	6835.291	-34.24842	-5.909583E-008	0.0056424	7
	33	48	505.5147	5844.417	-4640.081	1	7462.41	-38.44725	-3.004979E-009	0.0055702	7
	34	50	397.9953	6039.436	-5708.21	1	8310.142	-43.38497	6.079503E-009	0.0055409	7
	35	51	315.5048	6311.234	-6993.847	1	9420.486	-47.93696	6.770239E-009	0.0055363	7
	36	53	252.4038	6648.647	-8505.346	1	10795.62	-51.98518	1.166043E-009	0.0054747	6
	37	54	198.6229	7113.516	-10485.74	1	12670.94	-55.84707	7.30077E-010	0.0054778	6
	38	55	158.3615	7688.417	-12782.65	1	14916.7	-58.97424	-2.708918E-010	0.0054781	6
	39	57	125.558	8452.364	-15624.41	1	17764.14	-61.58786	1.254973E-009	0.0054795	6
	40	58	100.4464	9411.422	-18938.88	1	21148.42	-63.57553	2.41046E-009	0.0054795	6
	41	59	79.00281	10617.35	-23216.49	1	25529.07	-65.42448	2.014414E-009	0.0054809	6
	42	61	63.3446	11762.81	-27811.48	1	30196.72	-67.07417	2.604264E-010	0.0054729	6
	43	62	49.86702	14547.63	-33720.4	1	36724.64	-66.6637	-4.140372E-010	0.0054785	6
	44	64	39.72458	16859.14	-40815.42	1	44160.27	-67.55653	8.244022E-010	0.0054767	6
	45	65	31.6723	20074.31	-49067.93	1	53015.47	-67.74991	5.752646E-010	0.0054779	6
	46	67	24.93351	24122.6	-59311.82	1	64029.62	-67.86803	8.614374E-010	0.0054758	6
	47	68	19.86229	29116.35	-70859.57	1	76608.36	-67.66213	5.059415E-010	0.0054743	6
	48	69	15.83615	34332.6	-83675.63	1	90445.22	-67.69137	3.041732E-009	0.0054769	6
	49	71	12.40079	42800.43	-101712	1	110350.4	-67.17863	1.426249E-009	0.0054805	5
	50	72	9.93114	54615.85	-119149.5	1	131070.5	-65.37418	1.393391E-009	0.0054722	5
	51	74	7.944915	65708.27	-140750.8	1	155333.1	-64.9749	7.038767E-010	0.0054722	5
	52	76	6.317385	81496.88	-163220.4	1	182435.3	-63.46679	6.245048E-010	0.0054883	5
	53	78	5.008013	99847.9	-189894.4	1	214544.8	-62.26427	4.113074E-010	0.0054892	5
	54	80	3.945707	121538.6	-220727.3	1	251976.5	-61.1616	1.552428E-010	0.0054797	5
	55	83	3.158693	144527.3	-252481.8	1	290921.3	-60.21202	1.158892E-010	0.0054928	5
	56	86	2.504006	170898.4	-290241.7	1	336818.2	-59.50983	1.057703E-010	0.0054671	5
	57	89	1.998082	198694.3	-331962	1	386882.6	-59.09757	-1.086326E-010	0.0054993	5
	58	92	1.584686	230531.5	-383146.1	1	447152.9	-58.9655	2.032567E-010	0.0055173	5
	59	96	1.266892	264227.2	-439999.1	1	513240	-59.01444	-4.105076E-011	0.0055168	5
	60	100	0.999041	303507.8	-512929.2	1	595997.8	-59.38657	1.854258E-010	0.0054496	5
