EXPLAIN
TAG	EISPOT
TITLE	LABEL	Potentiostatic EIS	Test &Identifier
DATE	LABEL	11/15/2019	Date
TIME	LABEL	10:24:35	Time
NOTES	NOTES	4	&Notes...
	
	
	
	
PSTAT	PSTAT	REF600-11020	Potentiostat
VDC	POTEN	0.00000E+000	T	DC &Voltage (V)
FREQINIT	QUANT	1.00000E+006	Initial Fre&q. (Hz)
FREQFINAL	QUANT	1.00000E+000	Final Fre&q. (Hz)
PTSPERDEC	QUANT	1.00000E+001	Points/&decade
VAC	QUANT	2.50000E+001	AC &Voltage (mV rms)
AREA	QUANT	1.00000E-002	&Area (cm^2)
CONDIT	TWOPARAM	T	5.00000E+000	0.00000E+000	Conditionin&g	Time(s)	E(V)
DELAY	TWOPARAM	T	5.00000E+000	0.00000E+000	Init. De&lay	Time(s)	Stab.(mV/s)
SPEED	SELECTOR	0	&Optimize for:
ZGUESS	QUANT	1.00000E+005	E&stimated Z (ohms)
OCVCURVE	TABLE	19
	Pt	T	Vf	Vm	Ach	Over
	#	s	V vs. Ref.	V	V	bits
	0	0.258333	4.31777E-003	4.31777E-003	5.57466E-004	...........
	1	0.516667	4.31762E-003	4.31005E-003	5.54933E-004	...........
	2	0.775	4.31689E-003	4.31162E-003	5.57099E-004	...........
	3	1.03333	4.31554E-003	4.32188E-003	5.58132E-004	...........
	4	1.29167	4.31503E-003	4.33594E-003	5.63199E-004	...........
	5	1.55	4.31776E-003	4.35532E-003	5.58466E-004	...........
	6	1.80833	4.32546E-003	4.37715E-003	5.57833E-004	...........
	7	2.06667	4.33841E-003	4.40077E-003	5.57666E-004	...........
	8	2.325	4.35570E-003	4.41857E-003	5.58966E-004	...........
	9	2.58333	4.37581E-003	4.44634E-003	5.53566E-004	...........
	10	2.84167	4.39752E-003	4.47367E-003	5.52333E-004	...........
	11	3.1	4.42064E-003	4.49985E-003	5.56033E-004	...........
	12	3.35833	4.44538E-003	4.53076E-003	5.58032E-004	...........
	13	3.61667	4.47165E-003	4.55555E-003	5.55599E-004	...........
	14	3.875	4.49887E-003	4.58067E-003	5.56933E-004	...........
	15	4.13333	4.52631E-003	4.61461E-003	5.62532E-004	...........
	16	4.39167	4.55383E-003	4.64144E-003	5.55933E-004	...........
	17	4.65	4.58185E-003	4.67029E-003	5.55899E-004	...........
	18	4.90833	4.61042E-003	4.69740E-003	5.62332E-004	...........
EOC	QUANT	0.0046104	Open Circuit (V)
PSTATMODEL	IQUANT	4	Pstat Model
PSTATSECTION	LABEL	REF600-11020	Pstat Section
PSTATSERIALNO	LABEL	11020	Pstat Serial Number
CTRLMODE	IQUANT	1	Control Mode
IESTAB	IQUANT	0	I/E Stability
CASPEED	IQUANT	1	Control Amp Speed
CONVENTION	IQUANT	1	Current Convention
ICHRANGE	IQUANT	2	Ich Range
ICHRANGEMODE	TOGGLE	F	Ich Auto Range
ICHOFFSETENABLE	TOGGLE	T	Ich Offset Enable
ICHOFFSET	QUANT	0	Ich Offset (V)
ICHFILTER	IQUANT	3	Ich Filter
VCHRANGE	IQUANT	2	Vch Range
VCHRANGEMODE	TOGGLE	F	Vch Auto Range
VCHOFFSETENABLE	TOGGLE	T	Vch Offset Enable
VCHOFFSET	QUANT	0	Vch Offset (V)
VCHFILTER	IQUANT	3	Vch Filter
ACHRANGE	IQUANT	2	Ach Range
ACHOFFSETENABLE	TOGGLE	F	Ach Offset Enable
ACHOFFSET	QUANT	0	Ach Offset (V)
ACHFILTER	IQUANT	3	Ach Filter
IERANGELOWERLIMIT	IQUANT	1	I/E Range Lower Limit
IERANGEMODE	TOGGLE	F	I/E AutoRange
IERANGE	IQUANT	4	I/E Range
POSFEEDENABLE	TOGGLE	F	Positive Feedback IR Comp
POSFEEDRESISTANCE	QUANT	0	Positive Feedback Resistance (ohm)
ACHSELECT	IQUANT	0	Ach Select
CABLEID	IQUANT	14	Cable ID
DCCALDATE	LABEL	8/19/2019	DC Calibration Date
ACCALDATE	LABEL	8/19/2019	AC Calibration Date
THERMOSELECT	IQUANT	1	Thermo Select
FRAMEWORKVERSION	QUANT	6.33	Framework Version
INSTRUMENTVERSION	LABEL	3.50	Instrument Version
ZCURVE	TABLE
	Pt	Time	Freq	Zreal	Zimag	Zsig	Zmod	Zphz	Idc	Vdc	IERange
	#	s	Hz	ohm	ohm	V	ohm	°	A	V	#
	0	1	1000078	2166.87	-1200.24	1	2477.075	-28.98229	1.623972E-005	0.0048484	8
	1	2	794390.6	2334.62	-1185.182	1	2618.226	-26.91487	-1.059631E-005	0.0070191	8
	2	2	630984.4	2489.735	-1174.451	1	2752.837	-25.25406	7.171872E-006	0.0061193	8
	3	2	501234.4	2638.016	-1183.424	1	2891.301	-24.16118	1.198766E-006	0.0064106	8
	4	3	398109.4	2774.134	-1216.713	1	3029.226	-23.68187	-8.458734E-007	0.0057557	8
	5	3	316265.6	2939.919	-1258.759	1	3198.062	-23.17873	2.093003E-006	0.0063309	8
	6	3	251203.1	3119.529	-1314.782	1	3385.279	-22.85387	-9.908765E-007	0.0065011	8
	7	3	199546.9	3325.793	-1387.374	1	3603.568	-22.64374	-6.306088E-006	0.0069827	8
	8	4	158578.1	3548.516	-1444.522	1	3831.267	-22.15015	2.269909E-006	0.0055657	8
	9	4	125953.1	3853.673	-1465.349	1	4122.869	-20.81917	2.121158E-006	0.0059203	7
	10	4	100078.1	4111.957	-1458.195	1	4362.857	-19.52569	-3.505611E-007	0.0052055	7
	11	5	79453.13	4399.338	-1442.745	1	4629.869	-18.15669	4.597775E-007	0.0043439	7
	12	5	63140.62	4667.643	-1388.178	1	4869.695	-16.56271	-6.114279E-007	0.0076565	7
	13	5	50203.12	4913.083	-1295.158	1	5080.927	-14.76801	1.0905E-007	0.0069682	7
	14	6	39890.62	5127.131	-1177.168	1	5260.532	-12.93077	8.8181E-007	0.0057306	7
	15	6	31640.63	5279.62	-1047.017	1	5382.437	-11.21696	4.611449E-007	0.0043393	7
	16	6	25171.88	5425.354	-939.0339	1	5506.02	-9.81961	1.059567E-006	0.0052245	7
	17	7	20015.62	5507.322	-832.8608	1	5569.942	-8.599559	-1.268516E-006	0.0075581	7
	18	7	15890.62	5593.22	-750.7067	1	5643.374	-7.644399	9.836349E-007	0.0042713	7
	19	7	12609.37	5651.471	-692.3749	1	5693.726	-6.984634	7.651988E-007	0.0042106	7
	20	8	10078.13	5690.919	-653.3988	1	5728.306	-6.549695	7.666381E-007	0.004202	7
	21	8	8015.625	5742.752	-651.1222	1	5779.547	-6.46866	6.629583E-007	0.0061585	7
	22	8	6328.125	5767.313	-654.4153	1	5804.323	-6.473646	4.601353E-007	0.0043291	7
	23	9	5015.625	5794.624	-692.0225	1	5835.8	-6.810289	-1.265761E-006	0.0075505	7
	24	9	3984.375	5849.494	-753.849	1	5897.87	-7.343472	4.409624E-007	0.0064951	7
	25	9	3170.956	5854.882	-855.8822	1	5917.109	-8.316742	-3.499032E-007	0.0051833	7
	26	10	2527.573	5912.805	-985.204	1	5994.322	-9.459834	1.095126E-007	0.0069574	7
	27	10	1976.103	5958.266	-1166.063	1	6071.296	-11.07312	8.805614E-007	0.0057194	7
	28	11	1577.524	5978.565	-1374.392	1	6134.508	-12.94659	-1.266747E-006	0.0075444	7
	29	11	1265.625	6043.371	-1643.304	1	6262.809	-15.21198	-1.120238E-006	0.0076896	7
	30	11	998.264	6126.255	-2004.253	1	6445.777	-18.11592	1.059229E-006	0.0052192	7
	31	12	796.875	6188.266	-2416.347	1	6643.295	-21.32928	8.033202E-008	0.0046475	7
	32	12	627.7902	6296.982	-2971.207	1	6962.762	-25.2601	-2.616648E-007	0.0073762	7
	33	13	505.5147	6408.825	-3591.221	1	7346.421	-29.26434	1.15308E-007	0.0069547	7
	34	13	397.9953	6552.779	-4423.439	1	7906.056	-34.02123	4.141631E-010	0.0060298	7
	35	13	315.5048	6734.987	-5433.666	1	8653.599	-38.89596	1.13166E-009	0.006026	7
	36	14	252.4038	6955.762	-6626.891	1	9607.2	-43.61299	2.414898E-009	0.0060304	7
	37	14	198.6229	7255.048	-8204.527	1	10952.17	-48.51451	2.723698E-010	0.0059706	6
	38	14	158.3615	7625.532	-10042.3	1	12609.38	-52.7891	8.269984E-010	0.0059637	6
	39	15	125.558	8116.292	-12353.27	1	14780.99	-56.69447	2.456367E-010	0.0059653	6
	40	15	100.4464	8723.622	-15051.13	1	17396.5	-59.90346	1.460128E-009	0.0059639	6
	41	15	79.00281	9585.12	-18597.45	1	20922.23	-62.73344	-5.406206E-011	0.0059602	6
	42	16	63.3446	10774.89	-22743.58	1	25166.82	-64.65051	6.758077E-010	0.0059693	6
	43	16	49.86702	12225.61	-27959.1	1	30515.19	-66.38179	5.294436E-010	0.005965	6
	44	16	39.72458	14127.86	-33840.01	1	36670.73	-67.33996	5.618694E-010	0.005967	6
	45	17	31.6723	16597.68	-40929.38	1	44166.7	-67.92646	2.159538E-010	0.0059738	6
	46	17	24.93351	20130.99	-49998.67	1	53899.2	-68.06878	-4.190372E-010	0.0059692	6
	47	17	19.86229	24563.14	-60221.55	1	65038.32	-67.81046	-1.915787E-009	0.0059588	6
	48	17	15.83615	30233.28	-71529.8	1	77656.7	-67.08783	1.215761E-009	0.0059689	6
	49	18	12.40079	38658.88	-85905.73	1	94203.52	-65.77154	2.701339E-009	0.0059575	6
	50	18	9.93114	47315.08	-101269	1	111777.1	-64.957	-1.161895E-009	0.0059649	5
	51	19	7.944915	58647.25	-118185.3	1	131936.6	-63.60794	-8.580752E-010	0.0059668	5
	52	19	6.317385	72607.08	-137206.5	1	155233.4	-62.11306	-6.05095E-010	0.0059722	5
	53	20	5.008013	89576.99	-158507.3	1	182067.6	-60.52798	-6.717668E-010	0.0059655	5
	54	21	3.945707	110032.8	-182180.1	1	212830.5	-58.86896	2.948213E-010	0.0059613	5
	55	23	3.158693	131746.3	-205945.1	1	244480	-57.39231	-9.159983E-011	0.0059741	5
	56	24	2.504006	156942.4	-233325.8	1	281197.2	-56.07396	-4.819123E-010	0.0059633	5
	57	25	1.998082	182901.4	-261337.1	1	318982.8	-55.01307	-2.165795E-011	0.0059913	5
	58	27	1.584686	211899.4	-295045.7	1	363253.8	-54.3144	1.029152E-010	0.006009	5
	59	29	1.266892	240161.6	-331906.5	1	409682.2	-54.11118	1.019738E-011	0.0059828	5
	60	31	0.999041	272127.7	-377320.3	1	465214	-54.20042	-4.32712E-011	0.0059565	5
