EXPLAIN
TAG	EISPOT
TITLE	LABEL	Potentiostatic EIS	Test &Identifier
DATE	LABEL	10/28/2019	Date
TIME	LABEL	11:15:01	Time
NOTES	NOTES	1	&Notes...
	
PSTAT	PSTAT	REF600-11020	Potentiostat
VDC	POTEN	0.00000E+000	T	DC &Voltage (V)
FREQINIT	QUANT	1.00000E+006	Initial Fre&q. (Hz)
FREQFINAL	QUANT	1.00000E+000	Final Fre&q. (Hz)
PTSPERDEC	QUANT	1.00000E+001	Points/&decade
VAC	QUANT	2.50000E+001	AC &Voltage (mV rms)
AREA	QUANT	1.00000E-002	&Area (cm^2)
CONDIT	TWOPARAM	T	5.00000E+000	0.00000E+000	Conditionin&g	Time(s)	E(V)
DELAY	TWOPARAM	T	5.00000E+000	0.00000E+000	Init. De&lay	Time(s)	Stab.(mV/s)
SPEED	SELECTOR	1	&Optimize for:
ZGUESS	QUANT	1.00000E+005	E&stimated Z (ohms)
OCVCURVE	TABLE	19
	Pt	T	Vf	Vm	Ach	Over
	#	s	V vs. Ref.	V	V	bits
	0	0.258333	6.53933E-003	6.53933E-003	5.85565E-004	...........
	1	0.516667	6.53876E-003	6.50924E-003	5.83299E-004	...........
	2	0.775	6.53557E-003	6.49867E-003	5.84465E-004	...........
	3	1.03333	6.52841E-003	6.52597E-003	5.88232E-004	...........
	4	1.29167	6.52105E-003	6.55866E-003	5.88765E-004	...........
	5	1.55	6.52033E-003	6.54215E-003	5.88232E-004	...........
	6	1.80833	6.52749E-003	6.54386E-003	5.85599E-004	...........
	7	2.06667	6.53781E-003	6.60744E-003	5.88399E-004	...........
	8	2.325	6.54855E-003	6.53655E-003	5.84399E-004	...........
	9	2.58333	6.55867E-003	6.59368E-003	5.84399E-004	...........
	10	2.84167	6.56690E-003	6.61345E-003	5.86099E-004	...........
	11	3.1	6.57531E-003	6.59651E-003	5.86565E-004	...........
	12	3.35833	6.58323E-003	6.47714E-003	5.85299E-004	...........
	13	3.61667	6.58056E-003	6.50919E-003	5.87299E-004	...........
	14	3.875	6.56285E-003	6.58722E-003	5.81399E-004	...........
	15	4.13333	6.54399E-003	6.54009E-003	5.86565E-004	...........
	16	4.39167	6.53714E-003	6.49870E-003	5.83665E-004	...........
	17	4.65	6.53940E-003	6.66446E-003	5.86899E-004	...........
	18	4.90833	6.54919E-003	6.65259E-003	5.88532E-004	...........
EOC	QUANT	0.0065492	Open Circuit (V)
PSTATMODEL	IQUANT	4	Pstat Model
PSTATSECTION	LABEL	REF600-11020	Pstat Section
PSTATSERIALNO	LABEL	11020	Pstat Serial Number
CTRLMODE	IQUANT	1	Control Mode
IESTAB	IQUANT	0	I/E Stability
CASPEED	IQUANT	1	Control Amp Speed
CONVENTION	IQUANT	1	Current Convention
ICHRANGE	IQUANT	2	Ich Range
ICHRANGEMODE	TOGGLE	F	Ich Auto Range
ICHOFFSETENABLE	TOGGLE	T	Ich Offset Enable
ICHOFFSET	QUANT	0	Ich Offset (V)
ICHFILTER	IQUANT	3	Ich Filter
VCHRANGE	IQUANT	2	Vch Range
VCHRANGEMODE	TOGGLE	F	Vch Auto Range
VCHOFFSETENABLE	TOGGLE	T	Vch Offset Enable
VCHOFFSET	QUANT	0	Vch Offset (V)
VCHFILTER	IQUANT	3	Vch Filter
ACHRANGE	IQUANT	2	Ach Range
ACHOFFSETENABLE	TOGGLE	F	Ach Offset Enable
ACHOFFSET	QUANT	0	Ach Offset (V)
ACHFILTER	IQUANT	3	Ach Filter
IERANGELOWERLIMIT	IQUANT	1	I/E Range Lower Limit
IERANGEMODE	TOGGLE	F	I/E AutoRange
IERANGE	IQUANT	5	I/E Range
POSFEEDENABLE	TOGGLE	F	Positive Feedback IR Comp
POSFEEDRESISTANCE	QUANT	0	Positive Feedback Resistance (ohm)
ACHSELECT	IQUANT	0	Ach Select
CABLEID	IQUANT	14	Cable ID
DCCALDATE	LABEL	8/19/2019	DC Calibration Date
ACCALDATE	LABEL	8/19/2019	AC Calibration Date
THERMOSELECT	IQUANT	1	Thermo Select
FRAMEWORKVERSION	QUANT	6.33	Framework Version
INSTRUMENTVERSION	LABEL	3.50	Instrument Version
ZCURVE	TABLE
	Pt	Time	Freq	Zreal	Zimag	Zsig	Zmod	Zphz	Idc	Vdc	IERange
	#	s	Hz	ohm	ohm	V	ohm	°	A	V	#
	0	1	1000078	2491.044	-1868.696	1	3114.053	-36.87598	6.949762E-006	0.0075027	8
	1	3	794390.6	2889.04	-1841.103	1	3425.815	-32.50821	-1.349601E-006	0.0081501	8
	2	4	630984.4	3219.432	-1748.897	1	3663.794	-28.5122	-1.069956E-006	0.0085482	8
	3	6	501234.4	3537.937	-1613.814	1	3888.623	-24.51989	6.208068E-006	0.0071342	8
	4	8	398109.4	3802.727	-1446.054	1	4068.391	-20.82019	1.341883E-006	0.0076367	8
	5	9	316265.6	3996.585	-1282.814	1	4197.416	-17.79547	2.323701E-006	0.0076239	8
	6	11	251203.1	4187.745	-1120.711	1	4335.113	-14.98223	-1.655886E-007	0.0080013	8
	7	12	199546.9	4303.354	-962.462	1	4409.67	-12.60695	-2.188875E-006	0.008482	8
	8	14	158578.1	4382.635	-847.2767	1	4463.784	-10.94177	-3.568783E-006	0.0088085	8
	9	15	125953.1	4511.513	-647.0215	1	4557.673	-8.161459	7.038064E-007	0.0061433	7
	10	17	100078.1	4555.412	-581.8513	1	4592.42	-7.278833	4.55648E-008	0.0078929	7
	11	18	79453.13	4600.199	-529.9741	1	4630.626	-6.571889	-1.166645E-008	0.0080962	7
	12	19	63140.62	4642.019	-496.1174	1	4668.455	-6.10035	-1.706405E-008	0.0080801	7
	13	21	50203.12	4680.37	-471.542	1	4704.063	-5.753072	-1.231186E-008	0.0080888	7
	14	22	39890.62	4719.998	-462.1922	1	4742.573	-5.592695	9.684209E-008	0.0078345	7
	15	24	31640.63	4756.504	-465.9043	1	4779.268	-5.594333	1.618744E-007	0.0077953	7
	16	25	25171.88	4793.752	-479.8183	1	4817.706	-5.715837	-1.496063E-008	0.0080712	7
	17	26	20015.62	4854.31	-488.6011	1	4878.837	-5.747637	4.924967E-008	0.0079743	7
	18	28	15890.62	4876.626	-548.0084	1	4907.32	-6.411685	8.834093E-008	0.0078771	7
	19	29	12609.37	4917.06	-606.2052	1	4954.287	-7.028309	-4.46725E-008	0.0080472	7
	20	30	10078.13	4964.084	-672.4472	1	5009.423	-7.714471	1.608743E-007	0.0077891	7
	21	32	8015.625	5029.92	-741.8642	1	5084.334	-8.39008	-6.629889E-008	0.008163	7
	22	33	6328.125	5064.311	-883.2374	1	5140.754	-9.89312	-5.033265E-008	0.0080559	7
	23	34	5015.625	5120.484	-1028.669	1	5222.788	-11.35912	-1.241654E-008	0.0080766	7
	24	36	3984.375	5164.853	-1224.572	1	5308.039	-13.33837	-9.237979E-009	0.0079687	7
	25	37	3170.956	5251.488	-1431.189	1	5443.016	-15.24461	8.99427E-008	0.0078749	7
	26	38	2527.573	5330.056	-1703.687	1	5595.716	-17.72584	4.411772E-008	0.0079756	7
	27	40	1976.103	5427.75	-2060.612	1	5805.737	-20.78896	4.919811E-008	0.0078596	7
	28	41	1577.524	5581.546	-2425.391	1	6085.736	-23.48675	4.496313E-008	0.0079719	7
	29	42	1265.625	5660.353	-2964.416	1	6389.628	-27.64176	-1.436369E-008	0.0080666	7
	30	44	998.264	5814.367	-3602.227	1	6839.802	-31.77983	-1.404646E-008	0.0080652	7
	31	45	796.875	5991.28	-4339.501	1	7397.75	-35.91592	-6.16244E-009	0.0080728	7
	32	47	627.7902	6210.427	-5300.046	1	8164.551	-40.4778	-8.183159E-009	0.0080751	7
	33	48	505.5147	6447.308	-6373.83	1	9066.062	-44.67164	9.926648E-008	0.0079712	7
	34	49	397.9953	6755.146	-7811.188	1	10326.99	-49.14662	1.56312E-009	0.0079838	6
	35	51	315.5048	7111.93	-9544.11	1	11902.51	-53.30785	6.318849E-010	0.007982	6
	36	52	252.4038	7532.376	-11590.57	1	13823.1	-56.98133	1.282628E-010	0.0079782	6
	37	53	198.6229	8093.901	-14290.71	1	16423.63	-60.47386	1.16159E-009	0.007987	6
	38	55	158.3615	8773.275	-17440.46	1	19522.81	-63.29571	1.637378E-009	0.0079872	6
	39	56	125.558	9647.09	-21391.92	1	23466.58	-65.72612	1.108578E-009	0.0079863	6
	40	57	100.4464	10689.32	-26005.64	1	28116.8	-67.65546	4.541564E-010	0.0079822	6
	41	59	79.00281	12361.87	-32018.63	1	34322.13	-68.88924	6.551135E-010	0.0079792	6
	42	60	63.3446	13663.61	-39350.02	1	41654.75	-70.85133	-3.765323E-010	0.0079744	6
	43	61	49.86702	16848.34	-47437.35	1	50340.53	-70.44647	5.556177E-010	0.0079757	6
	44	63	39.72458	19998.06	-58239.31	1	61577.1	-71.04869	6.515277E-010	0.0079818	6
	45	64	31.6723	24500.98	-70602.66	1	74733.09	-70.86189	1.264034E-009	0.0079812	6
	46	66	24.93351	30467.41	-85828.52	1	91075.79	-70.45615	5.762874E-010	0.0079778	6
	47	67	19.86229	38002.73	-102927.2	1	109718.8	-69.73487	6.945397E-010	0.0079852	5
	48	68	15.83615	49577.31	-122512.8	1	132163.9	-67.96828	-1.727623E-009	0.0079825	5
	49	70	12.40079	62135.58	-147912.3	1	160433.4	-67.21351	1.205869E-009	0.0079808	5
	50	71	9.93114	78003.1	-173371	1	190110.5	-65.77607	1.159721E-009	0.007979	5
	51	73	7.944915	96823.2	-204483.7	1	226248.4	-64.6624	-3.094321E-010	0.0079914	5
	52	74	6.317385	122394.2	-235620	1	265512.9	-62.55011	-2.230164E-010	0.0080017	5
	53	76	5.008013	153066	-271174.9	1	311392.1	-60.55723	2.302941E-010	0.0079876	5
	54	79	3.945707	188354.5	-310718.9	1	363350.6	-58.7762	5.725629E-012	0.0079765	5
	55	82	3.158693	225866.3	-350632.2	1	417083.3	-57.21163	2.916266E-010	0.0079982	5
	56	85	2.504006	270226.6	-396387	1	479734.3	-55.7168	-3.337996E-010	0.0079812	5
	57	88	1.998082	316130.6	-442481.3	1	543809	-54.4561	1.449082E-010	0.0079428	5
	58	91	1.584686	367277.8	-498527.3	1	619211.1	-53.61998	-1.12393E-010	0.0079494	5
	59	94	1.266892	419384.5	-556724.4	1	697011.8	-53.00902	1.691091E-010	0.0079476	5
	60	99	0.999041	478445.9	-631313.6	1	792128.3	-52.84305	-1.477469E-010	0.008002	5
