EXPLAIN
TAG	EISPOT
TITLE	LABEL	Potentiostatic EIS	Test &Identifier
DATE	LABEL	10/12/2019	Date
TIME	LABEL	10:15:37	Time
NOTES	NOTES	1	&Notes...
	
PSTAT	PSTAT	REF600-11020	Potentiostat
VDC	POTEN	0.00000E+000	T	DC &Voltage (V)
FREQINIT	QUANT	1.00000E+006	Initial Fre&q. (Hz)
FREQFINAL	QUANT	1.00000E+000	Final Fre&q. (Hz)
PTSPERDEC	QUANT	1.00000E+001	Points/&decade
VAC	QUANT	2.50000E+001	AC &Voltage (mV rms)
AREA	QUANT	1.00000E-002	&Area (cm^2)
CONDIT	TWOPARAM	T	5.00000E+000	0.00000E+000	Conditionin&g	Time(s)	E(V)
DELAY	TWOPARAM	T	5.00000E+000	0.00000E+000	Init. De&lay	Time(s)	Stab.(mV/s)
SPEED	SELECTOR	1	&Optimize for:
ZGUESS	QUANT	1.00000E+004	E&stimated Z (ohms)
OCVCURVE	TABLE	19
	Pt	T	Vf	Vm	Ach	Over
	#	s	V vs. Ref.	V	V	bits
	0	0.258333	6.51319E-003	6.51319E-003	5.68799E-004	...........
	1	0.516667	6.50365E-003	6.01374E-003	5.64299E-004	...........
	2	0.775	6.44581E-003	5.57955E-003	5.63232E-004	...........
	3	1.03333	6.28730E-003	5.30008E-003	5.72699E-004	...........
	4	1.29167	6.01928E-003	4.99615E-003	5.66499E-004	...........
	5	1.55	5.69205E-003	4.83003E-003	5.66166E-004	...........
	6	1.80833	5.37126E-003	4.74084E-003	5.60499E-004	...........
	7	2.06667	5.10332E-003	4.70051E-003	5.61299E-004	...........
	8	2.325	4.90654E-003	4.54585E-003	5.60699E-004	...........
	9	2.58333	4.76824E-003	4.40917E-003	5.62866E-004	...........
	10	2.84167	4.65554E-003	4.25396E-003	5.66899E-004	...........
	11	3.1	4.53938E-003	4.09547E-003	5.66799E-004	...........
	12	3.35833	4.41157E-003	4.12489E-003	5.66432E-004	...........
	13	3.61667	4.28866E-003	4.17269E-003	5.58699E-004	...........
	14	3.875	4.19939E-003	4.16994E-003	5.55466E-004	...........
	15	4.13333	4.16082E-003	4.33621E-003	5.59999E-004	...........
	16	4.39167	4.16666E-003	4.12091E-003	5.64332E-004	...........
	17	4.65	4.18714E-003	4.02235E-003	5.59199E-004	...........
	18	4.90833	4.18204E-003	3.95619E-003	5.65332E-004	...........
EOC	QUANT	0.004182	Open Circuit (V)
PSTATMODEL	IQUANT	4	Pstat Model
PSTATSECTION	LABEL	REF600-11020	Pstat Section
PSTATSERIALNO	LABEL	11020	Pstat Serial Number
CTRLMODE	IQUANT	1	Control Mode
IESTAB	IQUANT	0	I/E Stability
CASPEED	IQUANT	1	Control Amp Speed
CONVENTION	IQUANT	1	Current Convention
ICHRANGE	IQUANT	2	Ich Range
ICHRANGEMODE	TOGGLE	F	Ich Auto Range
ICHOFFSETENABLE	TOGGLE	T	Ich Offset Enable
ICHOFFSET	QUANT	0	Ich Offset (V)
ICHFILTER	IQUANT	3	Ich Filter
VCHRANGE	IQUANT	2	Vch Range
VCHRANGEMODE	TOGGLE	F	Vch Auto Range
VCHOFFSETENABLE	TOGGLE	T	Vch Offset Enable
VCHOFFSET	QUANT	0	Vch Offset (V)
VCHFILTER	IQUANT	3	Vch Filter
ACHRANGE	IQUANT	2	Ach Range
ACHOFFSETENABLE	TOGGLE	F	Ach Offset Enable
ACHOFFSET	QUANT	0	Ach Offset (V)
ACHFILTER	IQUANT	3	Ach Filter
IERANGELOWERLIMIT	IQUANT	1	I/E Range Lower Limit
IERANGEMODE	TOGGLE	F	I/E AutoRange
IERANGE	IQUANT	5	I/E Range
POSFEEDENABLE	TOGGLE	F	Positive Feedback IR Comp
POSFEEDRESISTANCE	QUANT	0	Positive Feedback Resistance (ohm)
ACHSELECT	IQUANT	0	Ach Select
CABLEID	IQUANT	14	Cable ID
DCCALDATE	LABEL	8/19/2019	DC Calibration Date
ACCALDATE	LABEL	8/19/2019	AC Calibration Date
THERMOSELECT	IQUANT	1	Thermo Select
FRAMEWORKVERSION	QUANT	6.33	Framework Version
INSTRUMENTVERSION	LABEL	3.50	Instrument Version
ZCURVE	TABLE
	Pt	Time	Freq	Zreal	Zimag	Zsig	Zmod	Zphz	Idc	Vdc	IERange
	#	s	Hz	ohm	ohm	V	ohm	°	A	V	#
	0	1	1000078	2572.887	-1914.403	1	3206.975	-36.65175	-5.947337E-006	0.0075572	8
	1	3	794390.6	2953.474	-1877.253	1	3499.584	-32.44038	2.260724E-006	0.006404	8
	2	4	630984.4	3296.387	-1797.104	1	3754.431	-28.59807	3.780119E-006	0.0053775	8
	3	6	501234.4	3599.369	-1649.878	1	3959.49	-24.62576	1.08895E-006	0.0056182	8
	4	7	398109.4	3861.842	-1497.993	1	4142.198	-21.20108	-5.102627E-007	0.0061177	8
	5	9	316265.6	4058.348	-1358.758	1	4279.768	-18.51083	1.461244E-006	0.0055505	8
	6	10	251203.1	4213.565	-1212.045	1	4384.425	-16.04805	-8.826534E-007	0.0059708	8
	7	11	199546.9	4361.388	-1096.016	1	4496.994	-14.10631	-3.619898E-006	0.006491	8
	8	13	158578.1	4475.684	-1024.347	1	4591.409	-12.89122	3.056227E-006	0.0052666	8
	9	14	125953.1	4599.182	-924.0709	1	4691.096	-11.36065	4.330024E-007	0.0054368	7
	10	16	100078.1	4685.64	-860.0177	1	4763.911	-10.4005	-8.103442E-009	0.0057768	7
	11	17	79453.13	4767.046	-842.8936	1	4840.991	-10.02721	-1.320415E-008	0.0058144	7
	12	18	63140.62	4850.103	-844.0817	1	4923.004	-9.87252	3.621564E-009	0.005763	7
	13	20	50203.12	4933.313	-861.0262	1	5007.888	-9.90029	9.305095E-008	0.0056938	7
	14	21	39890.62	5017.772	-897.0728	1	5097.331	-10.1362	5.709604E-008	0.0056876	7
	15	23	31640.63	5111.714	-950.999	1	5199.425	-10.539	-1.312757E-008	0.0058045	7
	16	24	25171.88	5209.602	-1021.895	1	5308.881	-11.09801	-3.329284E-008	0.0057744	7
	17	25	20015.62	5307.363	-1116.368	1	5423.503	-11.87861	-4.923092E-008	0.0058362	7
	18	27	15890.62	5436.116	-1226.324	1	5572.722	-12.71246	-6.709588E-008	0.0059832	7
	19	28	12609.37	5566.671	-1360.16	1	5730.433	-13.73062	1.799853E-008	0.0056994	7
	20	29	10078.13	5711.811	-1514.041	1	5909.07	-14.84608	1.465432E-008	0.0057053	7
	21	31	8015.625	5876.346	-1688.518	1	6114.126	-16.03155	-3.41947E-008	0.0057822	7
	22	32	6328.125	6059.656	-1918.518	1	6356.11	-17.56805	1.381201E-008	0.0057041	7
	23	33	5015.625	6268.299	-2175.46	1	6635.074	-19.13972	-3.502074E-008	0.0057822	7
	24	35	3984.375	6519.507	-2469.368	1	6971.496	-20.74499	2.816435E-009	0.0057628	7
	25	36	3170.956	6772.814	-2809.935	1	7332.582	-22.5328	-6.220106E-009	0.0057609	7
	26	37	2527.573	7077.373	-3197.655	1	7766.222	-24.31411	-6.977751E-008	0.0058736	7
	27	39	1976.103	7468.531	-3680.805	1	8326.301	-26.23601	-4.137427E-008	0.0058723	7
	28	40	1577.524	7853.772	-4166.726	1	8890.633	-27.94766	4.587593E-008	0.005732	7
	29	42	1265.625	8315.519	-4697.108	1	9550.43	-29.46039	-4.939443E-009	0.0057449	6
	30	43	998.264	8834.509	-5347.667	1	10326.96	-31.18718	-3.814309E-009	0.0057253	6
	31	44	796.875	9359.228	-6048.87	1	11143.79	-32.87459	-8.274719E-009	0.0058148	6
	32	46	627.7902	9941.93	-6905.258	1	12104.73	-34.78226	-2.781902E-009	0.0056867	6
	33	47	505.5147	10475.3	-7816.715	1	13070.3	-36.73047	1.546334E-009	0.0057264	6
	34	48	397.9953	11074.71	-9045.977	1	14299.61	-39.24243	5.383924E-010	0.0057285	6
	35	50	315.5048	11651.12	-10521.74	1	15698.9	-42.08416	1.207469E-009	0.0057267	6
	36	51	252.4038	12215.98	-12294.59	1	17331.67	-45.18376	1.845246E-010	0.0057246	6
	37	52	198.6229	12846.54	-14689.51	1	19514.49	-48.82905	4.73416E-010	0.005729	6
	38	54	158.3615	13497.56	-17549.02	1	22139.38	-52.43486	3.240324E-010	0.0057248	6
	39	55	125.558	14269.28	-21209.93	1	25563.13	-56.06875	4.954698E-010	0.0057271	6
	40	56	100.4464	15168.98	-25620.07	1	29773.91	-59.37132	-6.265673E-011	0.0057235	6
	41	58	79.00281	16401.22	-31489.82	1	35505.05	-62.4876	3.196529E-010	0.0057223	6
	42	59	63.3446	17692.95	-37800.18	1	41736	-64.91734	5.513975E-010	0.0057191	6
	43	61	49.86702	19895.65	-47240.86	1	51259.5	-67.16144	-4.650904E-009	0.0057189	6
	44	62	39.72458	22062.27	-57595.13	1	61676.11	-69.04027	1.149247E-009	0.0057207	6
	45	63	31.6723	25079.98	-69959.36	1	74319.02	-70.27757	-2.66661E-012	0.0057248	6
	46	65	24.93351	29481.6	-86335.41	1	91230.3	-71.14612	7.259618E-010	0.0057229	6
	47	66	19.86229	34914.91	-104944.7	1	110600.4	-71.59782	3.114788E-010	0.0057313	5
	48	67	15.83615	41832.39	-126586.4	1	133319.4	-71.71308	9.191923E-010	0.0057288	5
	49	69	12.40079	52148.21	-156249.5	1	164722	-71.54359	-3.674976E-010	0.005733	5
	50	70	9.93114	62501.3	-187505.3	1	197647.8	-71.56518	-9.100264E-011	0.0057292	5
	51	72	7.944915	75810.85	-225231.9	1	237648.2	-71.39727	-2.197623E-010	0.0057268	5
	52	74	6.317385	95399.8	-269786.8	1	286157.4	-70.52582	-2.238527E-010	0.0057234	5
	53	76	5.008013	119054.2	-324095.8	1	345270.9	-69.82956	-6.932538E-011	0.005721	5
	54	78	3.945707	149559.8	-388939.5	1	416703.8	-68.96664	2.157476E-010	0.0057282	5
	55	81	3.158693	185010.2	-460441.2	1	496220.6	-68.10921	-7.937836E-011	0.0057131	5
	56	84	2.504006	231447	-546537.1	1	593523.9	-67.04836	2.897926E-010	0.0057199	5
	57	87	1.998082	286763.1	-642153.6	1	703274	-65.93615	1.415621E-010	0.0057587	5
	58	90	1.584686	357851.9	-753333.2	1	834007.8	-64.59113	1.188508E-010	0.0056996	5
	59	94	1.266892	441633.4	-878274.3	1	983059	-63.30482	1.287253E-010	0.0057588	5
	60	98	0.999041	552952.6	-1025434	1	1165020	-61.66479	-9.450345E-011	0.0056872	4
