EXPLAIN
TAG	EISPOT
TITLE	LABEL	Potentiostatic EIS	Test &Identifier
DATE	LABEL	10/18/2019	Date
TIME	LABEL	9:48:35	Time
NOTES	NOTES	1	&Notes...
	
PSTAT	PSTAT	REF600-11020	Potentiostat
VDC	POTEN	0.00000E+000	T	DC &Voltage (V)
FREQINIT	QUANT	1.00000E+006	Initial Fre&q. (Hz)
FREQFINAL	QUANT	1.00000E+000	Final Fre&q. (Hz)
PTSPERDEC	QUANT	1.00000E+001	Points/&decade
VAC	QUANT	2.50000E+001	AC &Voltage (mV rms)
AREA	QUANT	1.00000E-002	&Area (cm^2)
CONDIT	TWOPARAM	T	5.00000E+000	0.00000E+000	Conditionin&g	Time(s)	E(V)
DELAY	TWOPARAM	T	5.00000E+000	0.00000E+000	Init. De&lay	Time(s)	Stab.(mV/s)
SPEED	SELECTOR	0	&Optimize for:
ZGUESS	QUANT	1.00000E+005	E&stimated Z (ohms)
OCVCURVE	TABLE	19
	Pt	T	Vf	Vm	Ach	Over
	#	s	V vs. Ref.	V	V	bits
	0	0.258333	4.86424E-003	4.86424E-003	5.24066E-004	...........
	1	0.516667	4.86235E-003	4.76529E-003	5.24533E-004	...........
	2	0.775	4.85124E-003	4.69723E-003	5.29933E-004	...........
	3	1.03333	4.82129E-003	4.62482E-003	5.28100E-004	...........
	4	1.29167	4.77041E-003	4.56208E-003	5.24366E-004	...........
	5	1.55	4.70630E-003	4.51537E-003	5.25866E-004	...........
	6	1.80833	4.63980E-003	4.48191E-003	5.24466E-004	...........
	7	2.06667	4.57945E-003	4.45629E-003	5.27733E-004	...........
	8	2.325	4.52958E-003	4.42810E-003	5.25900E-004	...........
	9	2.58333	4.49033E-003	4.41167E-003	5.22466E-004	...........
	10	2.84167	4.45942E-003	4.39301E-003	5.25433E-004	...........
	11	3.1	4.43452E-003	4.38134E-003	5.31066E-004	...........
	12	3.35833	4.41408E-003	4.36704E-003	5.22466E-004	...........
	13	3.61667	4.39690E-003	4.35273E-003	5.29133E-004	...........
	14	3.875	4.38179E-003	4.33856E-003	5.28500E-004	...........
	15	4.13333	4.36785E-003	4.33670E-003	5.24733E-004	...........
	16	4.39167	4.35533E-003	4.33473E-003	5.18266E-004	...........
	17	4.65	4.34539E-003	4.32929E-003	5.16433E-004	...........
	18	4.90833	4.33851E-003	4.32914E-003	5.21500E-004	...........
EOC	QUANT	0.0043385	Open Circuit (V)
PSTATMODEL	IQUANT	4	Pstat Model
PSTATSECTION	LABEL	REF600-11020	Pstat Section
PSTATSERIALNO	LABEL	11020	Pstat Serial Number
CTRLMODE	IQUANT	1	Control Mode
IESTAB	IQUANT	0	I/E Stability
CASPEED	IQUANT	1	Control Amp Speed
CONVENTION	IQUANT	1	Current Convention
ICHRANGE	IQUANT	2	Ich Range
ICHRANGEMODE	TOGGLE	F	Ich Auto Range
ICHOFFSETENABLE	TOGGLE	T	Ich Offset Enable
ICHOFFSET	QUANT	0	Ich Offset (V)
ICHFILTER	IQUANT	3	Ich Filter
VCHRANGE	IQUANT	2	Vch Range
VCHRANGEMODE	TOGGLE	F	Vch Auto Range
VCHOFFSETENABLE	TOGGLE	T	Vch Offset Enable
VCHOFFSET	QUANT	0	Vch Offset (V)
VCHFILTER	IQUANT	3	Vch Filter
ACHRANGE	IQUANT	2	Ach Range
ACHOFFSETENABLE	TOGGLE	F	Ach Offset Enable
ACHOFFSET	QUANT	0	Ach Offset (V)
ACHFILTER	IQUANT	3	Ach Filter
IERANGELOWERLIMIT	IQUANT	1	I/E Range Lower Limit
IERANGEMODE	TOGGLE	F	I/E AutoRange
IERANGE	IQUANT	4	I/E Range
POSFEEDENABLE	TOGGLE	F	Positive Feedback IR Comp
POSFEEDRESISTANCE	QUANT	0	Positive Feedback Resistance (ohm)
ACHSELECT	IQUANT	0	Ach Select
CABLEID	IQUANT	14	Cable ID
DCCALDATE	LABEL	8/19/2019	DC Calibration Date
ACCALDATE	LABEL	8/19/2019	AC Calibration Date
THERMOSELECT	IQUANT	1	Thermo Select
FRAMEWORKVERSION	QUANT	6.33	Framework Version
INSTRUMENTVERSION	LABEL	3.50	Instrument Version
ZCURVE	TABLE
	Pt	Time	Freq	Zreal	Zimag	Zsig	Zmod	Zphz	Idc	Vdc	IERange
	#	s	Hz	ohm	ohm	V	ohm	°	A	V	#
	0	1	1000078	2591.416	-1626.486	1	3059.557	-32.11418	-2.862122E-006	0.0065684	8
	1	1	794390.6	2876.059	-1521.016	1	3253.491	-27.8723	1.765853E-006	0.0060693	8
	2	2	630984.4	3151.569	-1379.386	1	3440.217	-23.63815	-2.73695E-006	0.0064763	8
	3	2	501234.4	3360.312	-1215.208	1	3573.294	-19.88179	1.065857E-006	0.005593	8
	4	2	398109.4	3530.199	-1078.65	1	3691.313	-16.9905	-2.193086E-006	0.0062872	8
	5	3	316265.6	3669.196	-914.4151	1	3781.422	-13.99385	1.293462E-006	0.00578	8
	6	3	251203.1	3741.041	-792.8318	1	3824.129	-11.96555	3.389757E-006	0.005164	8
	7	3	199546.9	3840.191	-679.2125	1	3899.795	-10.03014	7.159895E-007	0.0056252	8
	8	4	158578.1	3882.198	-594.9772	1	3927.526	-8.713231	-3.382779E-007	0.0058329	8
	9	4	125953.1	3943.491	-463.8257	1	3970.674	-6.708197	-6.168596E-007	0.0069247	7
	10	4	100078.1	3979.331	-402.5232	1	3999.637	-5.776021	6.225144E-008	0.0057145	7
	11	5	79453.13	4011.129	-372.6489	1	4028.402	-5.307757	4.057348E-008	0.0057709	7
	12	5	63140.62	4039.327	-354.6949	1	4054.87	-5.018293	-4.453812E-008	0.0059028	7
	13	5	50203.12	4067.605	-343.3753	1	4082.073	-4.825301	8.894882E-008	0.0057462	7
	14	5	39890.62	4092.724	-341.432	1	4106.941	-4.768809	-1.460278E-008	0.0059494	7
	15	6	31640.63	4122.882	-351.0986	1	4137.804	-4.867481	-4.469439E-008	0.0058978	7
	16	6	25171.88	4151.211	-366.9161	1	4167.396	-5.051117	-3.560251E-008	0.0058171	7
	17	6	20015.62	4173.222	-396.4972	1	4192.015	-5.427372	4.038128E-008	0.005764	7
	18	7	15890.62	4214.415	-429.0789	1	4236.202	-5.813379	-6.634522E-009	0.0058222	7
	19	7	12609.37	4244.699	-474.4567	1	4271.133	-6.377836	-4.336451E-008	0.0058333	7
	20	7	10078.13	4282.964	-529.8757	1	4315.617	-7.052629	1.35116E-007	0.005599	7
	21	8	8015.625	4324.568	-598.4716	1	4365.783	-7.879046	-3.604008E-008	0.0058159	7
	22	8	6328.125	4363.345	-706.2647	1	4420.135	-9.194331	-3.265837E-008	0.0058078	7
	23	8	5015.625	4408.878	-823.3005	1	4485.09	-10.57741	-2.123963E-008	0.0057772	7
	24	9	3984.375	4444.992	-967.007	1	4548.962	-12.27345	-4.75615E-009	0.0059216	7
	25	9	3170.956	4512.758	-1149.325	1	4656.816	-14.28852	-3.136445E-008	0.0057966	7
	26	9	2527.573	4574.251	-1365.295	1	4773.657	-16.619	3.985308E-008	0.0057603	7
	27	10	1976.103	4651.391	-1659.707	1	4938.63	-19.6374	6.280152E-008	0.0056983	7
	28	10	1577.524	4711.529	-1992.723	1	5115.608	-22.92575	8.910041E-008	0.0057377	7
	29	10	1265.625	4820.88	-2381.628	1	5377.085	-26.29045	3.49477E-008	0.0056727	7
	30	11	998.264	4935.835	-2902.582	1	5726.033	-30.45821	3.48512E-008	0.0056787	7
	31	11	796.875	5059.23	-3508.979	1	6157.008	-34.74438	4.313945E-008	0.0057473	7
	32	11	627.7902	5217.873	-4304.483	1	6764.227	-39.52092	-1.307531E-008	0.0057667	7
	33	11	505.5147	5380.341	-5190.24	1	7475.738	-43.9697	-5.110412E-009	0.0059147	7
	34	12	397.9953	5605.721	-6397.226	1	8505.798	-48.77277	8.860885E-010	0.0058179	7
	35	12	315.5048	5870.208	-7850.553	1	9802.58	-53.21289	3.636998E-009	0.0058142	7
	36	12	252.4038	6190.642	-9566.03	1	11394.43	-57.09114	1.603205E-009	0.0057504	6
	37	13	198.6229	6619.089	-11842.26	1	13566.56	-60.79751	4.00367E-010	0.0057577	6
	38	13	158.3615	7135.315	-14494.96	1	16156.01	-63.79074	1.246493E-009	0.0057492	6
	39	13	125.558	7829.645	-17838.32	1	19480.99	-66.30224	8.35811E-010	0.0057534	6
	40	14	100.4464	8681.028	-21795.21	1	23460.43	-68.28262	-8.645166E-010	0.00575	6
	41	14	79.00281	9826.83	-26946.62	1	28682.51	-69.96422	-5.770803E-010	0.0057521	6
	42	14	63.3446	11847.75	-32482.23	1	34575.49	-69.96078	9.289442E-010	0.0057541	6
	43	15	49.86702	13951.28	-40226.13	1	42576.75	-70.87237	1.423695E-009	0.0057456	6
	44	15	39.72458	16291.1	-48997.14	1	51634.48	-71.60851	1.973671E-010	0.0057498	6
	45	15	31.6723	19683.46	-59371.91	1	62549.68	-71.6582	9.60725E-011	0.0057495	6
	46	16	24.93351	24749.58	-72666.58	1	76765.7	-71.19162	-4.503432E-010	0.0057471	6
	47	16	19.86229	30936.78	-87493.19	1	92801.63	-70.52688	-1.283854E-009	0.0057479	6
	48	16	15.83615	39667.8	-104246.1	1	111538.3	-69.16714	1.595902E-009	0.0057536	5
	49	17	12.40079	49714.89	-126048.1	1	135497.9	-68.47512	-7.74202E-010	0.0057543	5
	50	17	9.93114	63528.28	-148384	1	161411.4	-66.82256	-1.907327E-010	0.0057572	5
	51	18	7.944915	79780.08	-173991.2	1	191410	-65.36715	7.666857E-010	0.0057472	5
	52	18	6.317385	99641.8	-203311.5	1	226415.6	-63.89078	8.105273E-010	0.0057425	5
	53	19	5.008013	124991.9	-236104.6	1	267148.6	-62.10361	2.483937E-010	0.0057493	5
	54	20	3.945707	156754.6	-272045.7	1	313975.8	-60.04916	-3.42455E-011	0.005756	5
	55	21	3.158693	189606.6	-309213.8	1	362717.2	-58.48381	-1.966168E-010	0.0057421	5
	56	23	2.504006	229161.8	-349566.2	1	417985.3	-56.75274	8.058786E-011	0.0057428	5
	57	24	1.998082	270415	-392514.9	1	476646.8	-55.43591	1.878108E-010	0.0057701	5
	58	26	1.584686	316378.2	-439254	1	541331	-54.2362	-1.699285E-011	0.005725	5
	59	28	1.266892	364698.7	-491632.7	1	612133.8	-53.43156	-8.816382E-011	0.005699	5
	60	30	0.999041	417083.2	-556599.4	1	695529.5	-53.15424	-1.136576E-010	0.0057004	5
