EXPLAIN
TAG	EISPOT
TITLE	LABEL	Potentiostatic EIS	Test &Identifier
DATE	LABEL	11/20/2019	Date
TIME	LABEL	11:24:43	Time
NOTES	NOTES	4	&Notes...
	
	
	
	
PSTAT	PSTAT	REF600-11020	Potentiostat
VDC	POTEN	0.00000E+000	T	DC &Voltage (V)
FREQINIT	QUANT	1.00000E+006	Initial Fre&q. (Hz)
FREQFINAL	QUANT	1.00000E+000	Final Fre&q. (Hz)
PTSPERDEC	QUANT	1.00000E+001	Points/&decade
VAC	QUANT	2.50000E+001	AC &Voltage (mV rms)
AREA	QUANT	1.00000E-002	&Area (cm^2)
CONDIT	TWOPARAM	T	5.00000E+000	0.00000E+000	Conditionin&g	Time(s)	E(V)
DELAY	TWOPARAM	T	5.00000E+000	0.00000E+000	Init. De&lay	Time(s)	Stab.(mV/s)
SPEED	SELECTOR	1	&Optimize for:
ZGUESS	QUANT	1.00000E+005	E&stimated Z (ohms)
OCVCURVE	TABLE	19
	Pt	T	Vf	Vm	Ach	Over
	#	s	V vs. Ref.	V	V	bits
	0	0.258333	3.39688E-003	3.39688E-003	5.67432E-004	...........
	1	0.516667	3.41109E-003	4.14058E-003	5.66232E-004	...........
	2	0.775	3.46918E-003	3.31921E-003	5.71632E-004	...........
	3	1.03333	3.53530E-003	2.46371E-003	5.63966E-004	...........
	4	1.29167	3.47177E-003	2.24199E-003	5.59532E-004	...........
	5	1.55	3.20546E-003	2.56888E-003	5.61732E-004	...........
	6	1.80833	2.84997E-003	2.13031E-003	5.62266E-004	...........
	7	2.06667	2.55390E-003	1.91263E-003	5.64066E-004	...........
	8	2.325	2.33664E-003	1.67645E-003	5.62099E-004	...........
	9	2.58333	2.13943E-003	1.46048E-003	5.67132E-004	...........
	10	2.84167	1.92964E-003	1.28682E-003	5.66466E-004	...........
	11	3.1	1.71311E-003	1.13001E-003	5.65999E-004	...........
	12	3.35833	1.50603E-003	9.79218E-004	5.66566E-004	...........
	13	3.61667	1.31805E-003	8.33873E-004	5.58432E-004	...........
	14	3.875	1.14909E-003	6.95358E-004	5.61199E-004	...........
	15	4.13333	9.94277E-004	5.67022E-004	5.62732E-004	...........
	16	4.39167	8.48724E-004	4.15138E-004	5.69966E-004	...........
	17	4.65	7.08610E-004	2.99509E-004	5.63832E-004	...........
	18	4.90833	5.72135E-004	1.90937E-004	5.64099E-004	...........
EOC	QUANT	0.0005721	Open Circuit (V)
PSTATMODEL	IQUANT	4	Pstat Model
PSTATSECTION	LABEL	REF600-11020	Pstat Section
PSTATSERIALNO	LABEL	11020	Pstat Serial Number
CTRLMODE	IQUANT	1	Control Mode
IESTAB	IQUANT	0	I/E Stability
CASPEED	IQUANT	1	Control Amp Speed
CONVENTION	IQUANT	1	Current Convention
ICHRANGE	IQUANT	2	Ich Range
ICHRANGEMODE	TOGGLE	F	Ich Auto Range
ICHOFFSETENABLE	TOGGLE	T	Ich Offset Enable
ICHOFFSET	QUANT	0	Ich Offset (V)
ICHFILTER	IQUANT	3	Ich Filter
VCHRANGE	IQUANT	2	Vch Range
VCHRANGEMODE	TOGGLE	F	Vch Auto Range
VCHOFFSETENABLE	TOGGLE	T	Vch Offset Enable
VCHOFFSET	QUANT	0	Vch Offset (V)
VCHFILTER	IQUANT	3	Vch Filter
ACHRANGE	IQUANT	2	Ach Range
ACHOFFSETENABLE	TOGGLE	F	Ach Offset Enable
ACHOFFSET	QUANT	0	Ach Offset (V)
ACHFILTER	IQUANT	3	Ach Filter
IERANGELOWERLIMIT	IQUANT	1	I/E Range Lower Limit
IERANGEMODE	TOGGLE	F	I/E AutoRange
IERANGE	IQUANT	4	I/E Range
POSFEEDENABLE	TOGGLE	F	Positive Feedback IR Comp
POSFEEDRESISTANCE	QUANT	0	Positive Feedback Resistance (ohm)
ACHSELECT	IQUANT	0	Ach Select
CABLEID	IQUANT	14	Cable ID
DCCALDATE	LABEL	8/19/2019	DC Calibration Date
ACCALDATE	LABEL	8/19/2019	AC Calibration Date
THERMOSELECT	IQUANT	1	Thermo Select
FRAMEWORKVERSION	QUANT	6.33	Framework Version
INSTRUMENTVERSION	LABEL	3.50	Instrument Version
ZCURVE	TABLE
	Pt	Time	Freq	Zreal	Zimag	Zsig	Zmod	Zphz	Idc	Vdc	IERange
	#	s	Hz	ohm	ohm	V	ohm	°	A	V	#
	0	2	1000078	2165.125	-1751.713	1	2785.007	-38.97489	-5.012598E-007	0.0033678	8
	1	3	794390.6	2518.418	-1744.33	1	3063.514	-34.7076	1.048919E-006	0.0028867	8
	2	4	630984.4	2862.345	-1673.202	1	3315.513	-30.30869	4.07372E-006	0.0022101	8
	3	6	501234.4	3156.371	-1566.51	1	3523.724	-26.39525	1.136397E-006	0.0017639	8
	4	7	398109.4	3416.041	-1420.95	1	3699.788	-22.58555	-4.831461E-007	0.0025565	8
	5	8	316265.6	3628.221	-1282.188	1	3848.116	-19.46305	3.728285E-006	0.0020247	8
	6	10	251203.1	3810.138	-1144.247	1	3978.248	-16.71588	-1.573773E-006	0.001867	8
	7	11	199546.9	3923.827	-1016.558	1	4053.37	-14.52446	5.22143E-006	0.0014301	8
	8	12	158578.1	4033.661	-908.4433	1	4134.694	-12.69214	-7.618414E-007	0.0024361	8
	9	14	125953.1	4132.827	-787.8951	1	4207.26	-10.79353	-9.971428E-007	0.0031929	7
	10	15	100078.1	4222.238	-712.3994	1	4281.917	-9.57706	-8.300858E-007	0.0036037	7
	11	17	79453.13	4295.155	-671.957	1	4347.4	-8.891583	-2.943378E-007	0.0012525	7
	12	18	63140.62	4359.804	-645.7016	1	4407.36	-8.424458	-2.97907E-007	0.0012491	7
	13	19	50203.12	4420.78	-628.6046	1	4465.248	-8.092814	-8.317892E-007	0.0035932	7
	14	21	39890.62	4485.997	-626.9922	1	4529.601	-7.956491	-2.983946E-007	0.0012478	7
	15	22	31640.63	4552.681	-634.647	1	4596.704	-7.935931	4.445051E-007	0.0004719	7
	16	23	25171.88	4614.24	-652.7091	1	4660.176	-8.051378	-9.830551E-007	0.0025146	7
	17	25	20015.62	4688.965	-683.8123	1	4738.564	-8.297203	7.846374E-007	0.0017955	7
	18	26	15890.62	4762.722	-722.3276	1	4817.186	-8.623917	1.00477E-007	0.0007471	7
	19	27	12609.37	4846.634	-776.2243	1	4908.399	-9.099071	9.536855E-007	0.0013397	7
	20	29	10078.13	4924.767	-833.6302	1	4994.824	-9.60756	5.755699E-007	0.0022032	7
	21	30	8015.625	5013.65	-936.1989	1	5100.31	-10.57703	9.529041E-007	0.0013365	7
	22	31	6328.125	5100.944	-1004.449	1	5198.899	-11.13984	9.531025E-007	0.001337	7
	23	33	5015.625	5186.582	-1115.246	1	5305.13	-12.13526	-9.81197E-007	0.0025085	7
	24	34	3984.375	5271.405	-1249.64	1	5417.5	-13.33636	-1.128558E-006	0.0030344	7
	25	36	3170.956	5381.495	-1426.838	1	5567.437	-14.84961	1.022668E-006	0.0009477	7
	26	37	2527.573	5474.17	-1631.264	1	5712.054	-16.59369	-1.131333E-006	0.0030266	7
	27	38	1976.103	5595.408	-1914.585	1	5913.901	-18.88945	7.812775E-007	0.0017845	7
	28	40	1577.524	5732.237	-2209.224	1	6143.225	-21.07683	1.004917E-006	0.0006494	7
	29	41	1265.625	5832.121	-2628.138	1	6396.932	-24.25784	9.041771E-007	0.0004427	7
	30	43	998.264	5974.786	-3140.671	1	6749.954	-27.72885	3.670266E-007	0.002498	7
	31	44	796.875	6128.069	-3747.858	1	7183.292	-31.44949	5.745189E-007	0.0021916	7
	32	46	627.7902	6318.026	-4539.585	1	7779.8	-35.69775	-2.57388E-007	0.0032539	7
	33	47	505.5147	6509.075	-5447.637	1	8487.921	-39.92696	7.139915E-007	0.000372	7
	34	48	397.9953	6770.199	-6651.926	1	9491.244	-44.49514	8.305004E-010	0.002037	7
	35	50	315.5048	7080.347	-8114.133	1	10768.96	-48.89223	1.02348E-009	0.0019763	6
	36	51	252.4038	7444.14	-9840.8	1	12339.23	-52.89408	8.349607E-010	0.0019723	6
	37	52	198.6229	7936.986	-12123.99	1	14490.92	-56.78918	6.920082E-010	0.0019787	6
	38	54	158.3615	8525.128	-14774.92	1	17058.02	-60.01506	1.404092E-009	0.0019712	6
	39	55	125.558	9301.517	-18091.02	1	20342.16	-62.79	7.977828E-010	0.0019739	6
	40	57	100.4464	10246.85	-21953.34	1	24226.99	-64.97892	5.512866E-010	0.0019663	6
	41	58	79.00281	11620.88	-27071.55	1	29460.37	-66.76781	3.493426E-010	0.0019624	6
	42	59	63.3446	13101.85	-32956.93	1	35465.72	-68.31997	8.726863E-010	0.0019723	6
	43	61	49.86702	15271.5	-39951.48	1	42770.79	-69.08058	5.462431E-010	0.0019716	6
	44	62	39.72458	18066.61	-48586.7	1	51836.95	-69.60272	9.627005E-010	0.001973	6
	45	64	31.6723	21498.2	-58924.38	1	62723.64	-69.95581	1.476383E-009	0.0019749	6
	46	65	24.93351	26248.06	-71595.16	1	76255.02	-69.86617	9.625555E-010	0.0019678	6
	47	66	19.86229	32083.36	-86041.03	1	91828.1	-69.5503	1.464071E-009	0.001967	6
	48	68	15.83615	39817.09	-102953.9	1	110385.2	-68.85618	8.114588E-010	0.001977	5
	49	69	12.40079	49978.44	-124284.8	1	133957.3	-68.09354	1.155437E-010	0.00198	5
	50	71	9.93114	62502.37	-147216.2	1	159934.9	-66.99578	3.203655E-011	0.0019758	5
	51	72	7.944915	77606.63	-173137.3	1	189734.8	-65.85629	7.097616E-010	0.0019819	5
	52	74	6.317385	96762.8	-202729.5	1	224638.1	-64.48486	-6.794331E-011	0.001994	5
	53	76	5.008013	120471.1	-236400.4	1	265327.1	-62.99632	6.428096E-011	0.0019635	5
	54	78	3.945707	149310.7	-273795.4	1	311861.5	-61.39474	4.844328E-010	0.0019865	5
	55	81	3.158693	180141.2	-312986.6	1	361125.3	-60.07718	3.059862E-011	0.0019536	5
	56	84	2.504006	216207.5	-357796.7	1	418048.1	-58.85649	5.01477E-010	0.0019824	5
	57	87	1.998082	254689.4	-406381.4	1	479596.2	-57.9236	4.898052E-010	0.0019855	5
	58	90	1.584686	299598.3	-462844.1	1	551347.3	-57.08507	1.698249E-010	0.0019301	5
	59	94	1.266892	344373.8	-525475	1	628265.3	-56.76088	3.798429E-010	0.0019648	5
	60	98	0.999041	398025	-604770.3	1	723996.6	-56.64938	-5.435842E-011	0.0019797	5
