EXPLAIN
TAG	EISPOT
TITLE	LABEL	Potentiostatic EIS	Test &Identifier
DATE	LABEL	11/7/2019	Date
TIME	LABEL	11:16:31	Time
NOTES	NOTES	2	&Notes...
	
	
PSTAT	PSTAT	REF600-11020	Potentiostat
VDC	POTEN	0.00000E+000	T	DC &Voltage (V)
FREQINIT	QUANT	1.00000E+006	Initial Fre&q. (Hz)
FREQFINAL	QUANT	1.00000E+000	Final Fre&q. (Hz)
PTSPERDEC	QUANT	1.00000E+001	Points/&decade
VAC	QUANT	2.50000E+001	AC &Voltage (mV rms)
AREA	QUANT	1.00000E-002	&Area (cm^2)
CONDIT	TWOPARAM	T	5.00000E+000	0.00000E+000	Conditionin&g	Time(s)	E(V)
DELAY	TWOPARAM	T	5.00000E+000	0.00000E+000	Init. De&lay	Time(s)	Stab.(mV/s)
SPEED	SELECTOR	1	&Optimize for:
ZGUESS	QUANT	1.00000E+005	E&stimated Z (ohms)
OCVCURVE	TABLE	19
	Pt	T	Vf	Vm	Ach	Over
	#	s	V vs. Ref.	V	V	bits
	0	0.258333	5.25434E-003	5.25434E-003	5.60799E-004	...........
	1	0.516667	5.25117E-003	5.08854E-003	5.75299E-004	...........
	2	0.775	5.23179E-003	4.93492E-003	5.64166E-004	...........
	3	1.03333	5.17745E-003	4.80107E-003	5.58466E-004	...........
	4	1.29167	5.08230E-003	4.69970E-003	5.62899E-004	...........
	5	1.55	4.96110E-003	4.60092E-003	5.63066E-004	...........
	6	1.80833	4.83563E-003	4.51825E-003	5.62699E-004	...........
	7	2.06667	4.72026E-003	4.44917E-003	5.56866E-004	...........
	8	2.325	4.61974E-003	4.38107E-003	5.57699E-004	...........
	9	2.58333	4.53333E-003	4.32778E-003	5.63499E-004	...........
	10	2.84167	4.45852E-003	4.27418E-003	5.63999E-004	...........
	11	3.1	4.39299E-003	4.23362E-003	5.53899E-004	...........
	12	3.35833	4.33516E-003	4.18931E-003	5.56466E-004	...........
	13	3.61667	4.28387E-003	4.15603E-003	5.64332E-004	...........
	14	3.875	4.23805E-003	4.11782E-003	5.56866E-004	...........
	15	4.13333	4.19639E-003	4.07441E-003	5.56466E-004	...........
	16	4.39167	4.15712E-003	4.04181E-003	5.58199E-004	...........
	17	4.65	4.11912E-003	4.02204E-003	5.69532E-004	...........
	18	4.90833	4.08333E-003	3.99767E-003	5.54999E-004	...........
EOC	QUANT	0.0040833	Open Circuit (V)
PSTATMODEL	IQUANT	4	Pstat Model
PSTATSECTION	LABEL	REF600-11020	Pstat Section
PSTATSERIALNO	LABEL	11020	Pstat Serial Number
CTRLMODE	IQUANT	1	Control Mode
IESTAB	IQUANT	0	I/E Stability
CASPEED	IQUANT	1	Control Amp Speed
CONVENTION	IQUANT	1	Current Convention
ICHRANGE	IQUANT	2	Ich Range
ICHRANGEMODE	TOGGLE	F	Ich Auto Range
ICHOFFSETENABLE	TOGGLE	T	Ich Offset Enable
ICHOFFSET	QUANT	0	Ich Offset (V)
ICHFILTER	IQUANT	3	Ich Filter
VCHRANGE	IQUANT	2	Vch Range
VCHRANGEMODE	TOGGLE	F	Vch Auto Range
VCHOFFSETENABLE	TOGGLE	T	Vch Offset Enable
VCHOFFSET	QUANT	0	Vch Offset (V)
VCHFILTER	IQUANT	3	Vch Filter
ACHRANGE	IQUANT	2	Ach Range
ACHOFFSETENABLE	TOGGLE	F	Ach Offset Enable
ACHOFFSET	QUANT	0	Ach Offset (V)
ACHFILTER	IQUANT	3	Ach Filter
IERANGELOWERLIMIT	IQUANT	1	I/E Range Lower Limit
IERANGEMODE	TOGGLE	F	I/E AutoRange
IERANGE	IQUANT	4	I/E Range
POSFEEDENABLE	TOGGLE	F	Positive Feedback IR Comp
POSFEEDRESISTANCE	QUANT	0	Positive Feedback Resistance (ohm)
ACHSELECT	IQUANT	0	Ach Select
CABLEID	IQUANT	14	Cable ID
DCCALDATE	LABEL	8/19/2019	DC Calibration Date
ACCALDATE	LABEL	8/19/2019	AC Calibration Date
THERMOSELECT	IQUANT	1	Thermo Select
FRAMEWORKVERSION	QUANT	6.33	Framework Version
INSTRUMENTVERSION	LABEL	3.50	Instrument Version
ZCURVE	TABLE
	Pt	Time	Freq	Zreal	Zimag	Zsig	Zmod	Zphz	Idc	Vdc	IERange
	#	s	Hz	ohm	ohm	V	ohm	°	A	V	#
	0	1	1000078	2389.776	-1647.473	1	2902.619	-34.58175	-1.193761E-005	0.0070881	8
	1	3	794390.6	2654.202	-1569.015	1	3083.277	-30.58919	2.095438E-006	0.0064723	8
	2	4	630984.4	2953.736	-1468.181	1	3298.501	-26.43008	-3.846286E-006	0.0055633	8
	3	6	501234.4	3187.04	-1358.472	1	3464.486	-23.08607	1.922091E-007	0.0052502	8
	4	7	398109.4	3406.094	-1245.776	1	3626.766	-20.08995	8.230018E-006	0.0046549	8
	5	9	316265.6	3575.62	-1093.385	1	3739.058	-17.00305	-7.443214E-006	0.0065234	8
	6	10	251203.1	3707.067	-992.909	1	3837.736	-14.99427	3.250319E-006	0.0048355	8
	7	12	199546.9	3813.345	-886.562	1	3915.047	-13.08815	-1.861977E-006	0.005261	8
	8	14	158578.1	3862.621	-755.8771	1	3935.885	-11.0723	-2.775097E-007	0.0052058	8
	9	15	125953.1	4010.81	-663.9071	1	4065.386	-9.398914	-3.236908E-006	0.0081274	7
	10	17	100078.1	4069.354	-600.3707	1	4113.403	-8.39257	-1.04348E-006	0.0074306	7
	11	18	79453.13	4130.448	-599.2258	1	4173.688	-8.25461	9.589112E-007	0.0052317	7
	12	19	63140.62	4190.057	-589.3504	1	4231.302	-8.006387	-8.362147E-007	0.0052605	7
	13	21	50203.12	4245.867	-592.3538	1	4286.989	-7.942243	-8.359819E-007	0.0052562	7
	14	22	39890.62	4304.702	-606.4338	1	4347.208	-8.018892	1.425015E-007	0.0038611	7
	15	23	31640.63	4368.39	-631.4982	1	4413.799	-8.225744	1.17612E-006	0.0046446	7
	16	25	25171.88	4433.638	-666.7198	1	4483.487	-8.551924	1.142689E-006	0.0035022	7
	17	26	20015.62	4505.741	-720.2494	1	4562.944	-9.081981	9.108483E-007	0.003404	7
	18	27	15890.62	4580.953	-778.4471	1	4646.624	-9.64422	1.26628E-006	0.0037735	7
	19	29	12609.37	4666.306	-848.4331	1	4742.81	-10.30501	-3.478123E-007	0.004466	7
	20	30	10078.13	4767.266	-912.8279	1	4853.873	-10.83969	1.28113E-006	0.004149	7
	21	32	8015.625	4855.231	-1044.387	1	4966.288	-12.13966	-1.425153E-006	0.0071563	7
	22	33	6328.125	4982.886	-1170.936	1	5118.618	-13.22409	1.145593E-006	0.0035052	7
	23	34	5015.625	5114.343	-1312.265	1	5280.014	-14.39081	-3.455588E-007	0.0044633	7
	24	36	3984.375	5251.004	-1479.789	1	5455.532	-15.73841	9.140644E-007	0.0034006	7
	25	37	3170.956	5416.305	-1660.971	1	5665.262	-17.04875	-1.275456E-006	0.0073417	7
	26	38	2527.573	5589.733	-1871.653	1	5894.761	-18.51249	-1.273488E-006	0.0073412	7
	27	40	1976.103	5792.288	-2125.522	1	6169.962	-20.15098	7.848178E-008	0.0065869	7
	28	41	1577.524	6076.827	-2337.317	1	6510.828	-21.03814	1.279917E-006	0.0041552	7
	29	43	1265.625	6194.464	-2733.878	1	6770.929	-23.81389	9.634883E-007	0.0052212	7
	30	45	998.264	6425.415	-3137.321	1	7150.436	-26.02475	8.058483E-008	0.0065821	7
	31	46	796.875	6651.385	-3608.575	1	7567.215	-28.48115	7.135397E-007	0.0057013	7
	32	47	627.7902	6900.925	-4210.399	1	8083.949	-31.38824	-1.411599E-006	0.0067045	7
	33	49	505.5147	7123.794	-4917.613	1	8656.29	-34.61763	1.266364E-006	0.0037604	7
	34	50	397.9953	7394.062	-5863.779	1	9436.951	-38.41579	6.650049E-009	0.0054848	7
	35	52	315.5048	7687.748	-7024.279	1	10413.55	-42.41788	-1.933843E-010	0.0054181	6
	36	53	252.4038	8011.257	-8418.551	1	11621.2	-46.42007	2.196362E-010	0.0054252	6
	37	54	198.6229	8424.064	-10280.83	1	13291.37	-50.66898	1.042819E-009	0.0054171	6
	38	56	158.3615	8906.655	-12472.26	1	15325.99	-54.46873	1.529793E-009	0.0054193	6
	39	57	125.558	9539.42	-15234.56	1	17974.77	-57.94645	7.331937E-010	0.0054135	6
	40	59	100.4464	10339.98	-18506.04	1	21198.79	-60.80636	3.624306E-010	0.0054166	6
	41	60	79.00281	11418.53	-22706.66	1	25416.05	-63.30349	1.720364E-009	0.0054168	6
	42	61	63.3446	12984.84	-27763.11	1	30649.58	-64.93445	-1.227505E-010	0.005421	6
	43	63	49.86702	14395.29	-33835.25	1	36770.21	-66.95255	2.579228E-010	0.0054226	6
	44	64	39.72458	16913.68	-40997.13	1	44349.04	-67.58102	2.880061E-010	0.0054261	6
	45	66	31.6723	20024.39	-49417.39	1	53320.3	-67.94175	5.94796E-010	0.0054117	6
	46	67	24.93351	24161.05	-60257.52	1	64920.91	-68.15103	-7.055545E-011	0.0054194	6
	47	68	19.86229	29309.37	-72331.08	1	78043.73	-67.94165	-2.315731E-010	0.0054272	6
	48	70	15.83615	36355.22	-86790.27	1	94097.04	-67.27187	-1.611163E-009	0.0054292	6
	49	71	12.40079	45550.76	-103564.6	1	113139.3	-66.2587	-1.340291E-009	0.0054329	5
	50	73	9.93114	55161.76	-121819.2	1	133726.3	-65.63818	1.222766E-010	0.00542	5
	51	74	7.944915	67371.61	-142189.2	1	157342.6	-64.64763	-4.54649E-012	0.005427	5
	52	76	6.317385	82015.57	-165022	1	184279.2	-63.57273	2.94631E-010	0.005406	5
	53	78	5.008013	98934.2	-191778	1	215793.4	-62.71175	2.664964E-010	0.0054382	5
	54	80	3.945707	118327.7	-222635	1	252126.6	-62.00992	-1.062631E-010	0.0054241	5
	55	83	3.158693	138036	-256235.2	1	291050.6	-61.68828	1.771327E-010	0.0054446	5
	56	86	2.504006	160115	-297808	1	338121.9	-61.73552	3.966844E-011	0.0054157	5
	57	89	1.998082	183303.7	-345513.1	1	391126	-62.05288	-2.457888E-011	0.0054321	5
	58	92	1.584686	210245.7	-406088.6	1	457286.8	-62.62788	1.578346E-010	0.0054645	5
	59	96	1.266892	239963.6	-475427.8	1	532554.4	-63.21846	-1.338746E-011	0.00546	5
	60	100	0.999041	276240.3	-565405.2	1	629278.8	-63.96123	1.260403E-010	0.005399	5
