EXPLAIN
TAG	EISPOT
TITLE	LABEL	Potentiostatic EIS	Test &Identifier
DATE	LABEL	11/5/2019	Date
TIME	LABEL	9:10:24	Time
NOTES	NOTES	2	&Notes...
	
	
PSTAT	PSTAT	REF600-11020	Potentiostat
VDC	POTEN	0.00000E+000	T	DC &Voltage (V)
FREQINIT	QUANT	1.00000E+006	Initial Fre&q. (Hz)
FREQFINAL	QUANT	1.00000E+000	Final Fre&q. (Hz)
PTSPERDEC	QUANT	1.00000E+001	Points/&decade
VAC	QUANT	2.50000E+001	AC &Voltage (mV rms)
AREA	QUANT	1.00000E-002	&Area (cm^2)
CONDIT	TWOPARAM	T	5.00000E+000	0.00000E+000	Conditionin&g	Time(s)	E(V)
DELAY	TWOPARAM	T	5.00000E+000	0.00000E+000	Init. De&lay	Time(s)	Stab.(mV/s)
SPEED	SELECTOR	1	&Optimize for:
ZGUESS	QUANT	1.00000E+005	E&stimated Z (ohms)
OCVCURVE	TABLE	19
	Pt	T	Vf	Vm	Ach	Over
	#	s	V vs. Ref.	V	V	bits
	0	0.258333	4.07624E-003	4.07624E-003	5.56366E-004	...........
	1	0.516667	4.07359E-003	3.93759E-003	5.54666E-004	...........
	2	0.775	4.05024E-003	3.43536E-003	5.50999E-004	...........
	3	1.03333	3.97534E-003	3.72243E-003	5.58399E-004	...........
	4	1.29167	3.84903E-003	3.43212E-003	5.57099E-004	...........
	5	1.55	3.70179E-003	2.84659E-003	5.60866E-004	...........
	6	1.80833	3.53033E-003	2.84853E-003	5.54433E-004	...........
	7	2.06667	3.31989E-003	2.96506E-003	5.54833E-004	...........
	8	2.325	3.11688E-003	2.98595E-003	5.55633E-004	...........
	9	2.58333	2.98627E-003	2.83894E-003	5.56533E-004	...........
	10	2.84167	2.92729E-003	2.71083E-003	5.54066E-004	...........
	11	3.1	2.88695E-003	2.65008E-003	5.55466E-004	...........
	12	3.35833	2.82741E-003	2.59122E-003	5.57732E-004	...........
	13	3.61667	2.74997E-003	2.53063E-003	5.60799E-004	...........
	14	3.875	2.67100E-003	2.46661E-003	5.54566E-004	...........
	15	4.13333	2.59941E-003	2.42183E-003	5.54933E-004	...........
	16	4.39167	2.53697E-003	2.43551E-003	5.56999E-004	...........
	17	4.65	2.48216E-003	2.18969E-003	5.60166E-004	...........
	18	4.90833	2.42643E-003	2.27619E-003	5.58166E-004	...........
EOC	QUANT	0.0024264	Open Circuit (V)
PSTATMODEL	IQUANT	4	Pstat Model
PSTATSECTION	LABEL	REF600-11020	Pstat Section
PSTATSERIALNO	LABEL	11020	Pstat Serial Number
CTRLMODE	IQUANT	1	Control Mode
IESTAB	IQUANT	0	I/E Stability
CASPEED	IQUANT	1	Control Amp Speed
CONVENTION	IQUANT	1	Current Convention
ICHRANGE	IQUANT	2	Ich Range
ICHRANGEMODE	TOGGLE	F	Ich Auto Range
ICHOFFSETENABLE	TOGGLE	T	Ich Offset Enable
ICHOFFSET	QUANT	0	Ich Offset (V)
ICHFILTER	IQUANT	3	Ich Filter
VCHRANGE	IQUANT	2	Vch Range
VCHRANGEMODE	TOGGLE	F	Vch Auto Range
VCHOFFSETENABLE	TOGGLE	T	Vch Offset Enable
VCHOFFSET	QUANT	0	Vch Offset (V)
VCHFILTER	IQUANT	3	Vch Filter
ACHRANGE	IQUANT	2	Ach Range
ACHOFFSETENABLE	TOGGLE	F	Ach Offset Enable
ACHOFFSET	QUANT	0	Ach Offset (V)
ACHFILTER	IQUANT	3	Ach Filter
IERANGELOWERLIMIT	IQUANT	1	I/E Range Lower Limit
IERANGEMODE	TOGGLE	F	I/E AutoRange
IERANGE	IQUANT	4	I/E Range
POSFEEDENABLE	TOGGLE	F	Positive Feedback IR Comp
POSFEEDRESISTANCE	QUANT	0	Positive Feedback Resistance (ohm)
ACHSELECT	IQUANT	0	Ach Select
CABLEID	IQUANT	14	Cable ID
DCCALDATE	LABEL	8/19/2019	DC Calibration Date
ACCALDATE	LABEL	8/19/2019	AC Calibration Date
THERMOSELECT	IQUANT	1	Thermo Select
FRAMEWORKVERSION	QUANT	6.33	Framework Version
INSTRUMENTVERSION	LABEL	3.50	Instrument Version
ZCURVE	TABLE
	Pt	Time	Freq	Zreal	Zimag	Zsig	Zmod	Zphz	Idc	Vdc	IERange
	#	s	Hz	ohm	ohm	V	ohm	°	A	V	#
	0	2	1000078	2399.889	-1612.795	1	2891.466	-33.90224	-1.135312E-006	0.0056012	8
	1	3	794390.6	2710.881	-1490.014	1	3093.383	-28.79504	-7.588905E-006	0.0055789	8
	2	4	630984.4	2987.451	-1352.494	1	3279.345	-24.35745	1.009564E-005	0.0033669	8
	3	6	501234.4	3195.535	-1190.866	1	3410.22	-20.43869	-6.490722E-007	0.0045803	8
	4	7	398109.4	3365.124	-1045.485	1	3523.79	-17.2591	-3.835898E-007	0.0045896	8
	5	8	316265.6	3482.035	-893.7393	1	3594.904	-14.39544	7.630036E-007	0.0044545	8
	6	10	251203.1	3573.73	-778.9752	1	3657.643	-12.29657	-2.612827E-006	0.003957	8
	7	11	199546.9	3628.707	-660.8221	1	3688.387	-10.32101	2.502414E-006	0.0035066	8
	8	13	158578.1	3705.847	-595.3223	1	3753.36	-9.126254	-2.557331E-006	0.0039558	8
	9	14	125953.1	3763.138	-473.359	1	3792.793	-7.169487	-3.737325E-007	0.0018773	7
	10	15	100078.1	3792.549	-439.2433	1	3817.9	-6.606417	-1.257424E-006	0.0051104	7
	11	17	79453.13	3827.975	-420.4522	1	3850.996	-6.268055	3.882365E-007	0.0045758	7
	12	18	63140.62	3863.392	-411.8301	1	3885.28	-6.084641	-1.275958E-006	0.0054912	7
	13	20	50203.12	3898.285	-417.1024	1	3920.536	-6.107207	3.89521E-007	0.0045625	7
	14	21	39890.62	3935.962	-429.0287	1	3959.275	-6.220809	-6.591234E-007	0.0056614	7
	15	22	31640.63	3976.396	-454.5804	1	4002.296	-6.521723	1.46216E-007	0.0025527	7
	16	24	25171.88	4019.94	-484.6734	1	4049.052	-6.874816	1.131213E-006	0.0025004	7
	17	25	20015.62	4067.56	-527.6154	1	4101.636	-7.390741	1.04611E-006	0.0032853	7
	18	26	15890.62	4119.993	-581.1978	1	4160.785	-8.029597	1.028786E-006	0.0022524	7
	19	28	12609.37	4174.693	-645.8699	1	4224.359	-8.794547	-9.401883E-007	0.0057348	7
	20	29	10078.13	4235.812	-730.083	1	4298.27	-9.77939	-2.933954E-007	0.0030846	7
	21	30	8015.625	4301.811	-814.8281	1	4378.301	-10.72562	-1.145327E-006	0.0056597	7
	22	32	6328.125	4378.109	-930.0804	1	4475.812	-11.99355	-1.073033E-006	0.0045029	7
	23	33	5015.625	4460.727	-1065.875	1	4586.303	-13.43864	1.140589E-006	0.002835	7
	24	34	3984.375	4546.699	-1224.975	1	4708.826	-15.07864	-6.580374E-007	0.0056614	7
	25	36	3170.956	4638.351	-1420.612	1	4851.024	-17.02853	6.209526E-007	0.0042344	7
	26	37	2527.573	4736.921	-1652.894	1	5017.019	-19.23584	-1.144185E-006	0.0056624	7
	27	39	1976.103	4859.163	-1967.885	1	5242.522	-22.04718	6.221168E-007	0.0042322	7
	28	40	1577.524	4979.419	-2311.73	1	5489.874	-24.90342	1.045171E-006	0.0032809	7
	29	41	1265.625	5116.7	-2727.154	1	5798.102	-28.0572	-1.142922E-006	0.0056551	7
	30	43	998.264	5273.475	-3265.542	1	6202.685	-31.76741	-1.144485E-006	0.0056605	7
	31	44	796.875	5442.31	-3900.461	1	6695.695	-35.62887	-3.176535E-007	0.0054135	7
	32	45	627.7902	5643.82	-4725.188	1	7360.713	-39.93715	5.217912E-007	0.0022463	7
	33	47	505.5147	5847.845	-5642.326	1	8126.077	-43.97529	1.131741E-006	0.0024917	7
	34	48	397.9953	6116.197	-6876.758	1	9203.134	-48.35007	4.583802E-009	0.0040187	7
	35	49	315.5048	6417.808	-8373.206	1	10549.83	-52.53093	9.584729E-010	0.003957	6
	36	51	252.4038	6755.619	-10150.09	1	12192.73	-56.35336	1.686248E-009	0.0039564	6
	37	52	198.6229	7197.741	-12516.17	1	14438.21	-60.09785	7.062726E-010	0.0039574	6
	38	54	158.3615	7725.621	-15281.76	1	17123.59	-63.18134	1.477323E-009	0.0039526	6
	39	55	125.558	8407.672	-18774.83	1	20571.42	-65.8764	7.969184E-010	0.0039517	6
	40	56	100.4464	9234.285	-22876.34	1	24669.8	-68.018	-1.173317E-011	0.0039487	6
	41	58	79.00281	10436.28	-28281.27	1	30145.42	-69.74506	1.151269E-009	0.0039496	6
	42	59	63.3446	11747.57	-34141.53	1	36106.08	-71.01245	-2.371389E-010	0.0039518	6
	43	60	49.86702	14134.94	-42689.71	1	44968.96	-71.67984	1.446297E-010	0.0039393	6
	44	62	39.72458	16435.93	-51956.61	1	54494.3	-72.44578	7.013413E-010	0.0039437	6
	45	63	31.6723	19976.61	-63043.04	1	66132.36	-72.41802	4.264714E-010	0.0039499	6
	46	65	24.93351	24365.39	-77283.32	1	81033.23	-72.50131	1.55766E-010	0.0039552	6
	47	66	19.86229	30171.57	-93286.83	1	98044.7	-72.07735	9.064636E-010	0.00394	6
	48	67	15.83615	38203.72	-112492.1	1	118802.3	-71.24187	1.066896E-009	0.0039516	5
	49	69	12.40079	47200.14	-136458.7	1	144391.3	-70.91985	4.993327E-010	0.0039623	5
	50	70	9.93114	59073.55	-162144.5	1	172570.4	-69.98198	5.316377E-010	0.00396	5
	51	72	7.944915	73132.67	-193092.5	1	206477.9	-69.25611	2.296508E-011	0.0039576	5
	52	73	6.317385	91857.44	-228611.9	1	246376.1	-68.10948	-8.763177E-011	0.0039648	5
	53	75	5.008013	115248.3	-270365.5	1	293904.2	-66.91297	2.050856E-010	0.0039422	5
	54	78	3.945707	144118.1	-319785.2	1	350760	-65.74026	3.317939E-010	0.0039568	5
	55	80	3.158693	177738	-372885.8	1	413079.5	-64.51495	7.119195E-011	0.0039684	5
	56	84	2.504006	219104.5	-437156.5	1	488991.4	-63.3798	2.293654E-009	0.003942	5
	57	87	1.998082	266134.6	-504372.1	1	570279.6	-62.18139	-2.65152E-010	0.0039742	5
	58	90	1.584686	325319.7	-587098.3	1	671205.9	-61.00853	9.668071E-011	0.004002	5
	59	93	1.266892	388503.5	-669190.1	1	773789.6	-59.86236	-2.814112E-012	0.0039754	5
	60	98	0.999041	469102.8	-772093.3	1	903429.9	-58.71828	1.84384E-010	0.0039574	5
