EXPLAIN
TAG	EISPOT
TITLE	LABEL	Potentiostatic EIS	Test &Identifier
DATE	LABEL	11/20/2019	Date
TIME	LABEL	11:29:05	Time
NOTES	NOTES	4	&Notes...
	
	
	
	
PSTAT	PSTAT	REF600-11020	Potentiostat
VDC	POTEN	0.00000E+000	T	DC &Voltage (V)
FREQINIT	QUANT	1.00000E+006	Initial Fre&q. (Hz)
FREQFINAL	QUANT	1.00000E+000	Final Fre&q. (Hz)
PTSPERDEC	QUANT	1.00000E+001	Points/&decade
VAC	QUANT	2.50000E+001	AC &Voltage (mV rms)
AREA	QUANT	1.00000E-002	&Area (cm^2)
CONDIT	TWOPARAM	T	5.00000E+000	0.00000E+000	Conditionin&g	Time(s)	E(V)
DELAY	TWOPARAM	T	5.00000E+000	0.00000E+000	Init. De&lay	Time(s)	Stab.(mV/s)
SPEED	SELECTOR	1	&Optimize for:
ZGUESS	QUANT	1.00000E+005	E&stimated Z (ohms)
OCVCURVE	TABLE	19
	Pt	T	Vf	Vm	Ach	Over
	#	s	V vs. Ref.	V	V	bits
	0	0.258333	5.12455E-003	5.12455E-003	5.04833E-004	...........
	1	0.516667	5.12653E-003	5.22806E-003	5.05867E-004	...........
	2	0.775	5.12679E-003	4.70404E-003	5.11567E-004	...........
	3	1.03333	5.09948E-003	4.80149E-003	5.11933E-004	...........
	4	1.29167	5.01633E-003	4.48424E-003	5.08800E-004	...........
	5	1.55	4.88699E-003	4.64717E-003	5.04433E-004	...........
	6	1.80833	4.75453E-003	4.58204E-003	5.08400E-004	...........
	7	2.06667	4.65454E-003	4.38742E-003	5.04333E-004	...........
	8	2.325	4.58938E-003	4.62644E-003	5.09167E-004	...........
	9	2.58333	4.55437E-003	4.83096E-003	5.05233E-004	...........
	10	2.84167	4.57220E-003	5.08801E-003	5.07966E-004	...........
	11	3.1	4.66619E-003	5.16986E-003	5.07900E-004	...........
	12	3.35833	4.81874E-003	5.22060E-003	5.01567E-004	...........
	13	3.61667	4.98154E-003	5.30280E-003	5.02533E-004	...........
	14	3.875	5.11602E-003	5.32842E-003	5.08233E-004	...........
	15	4.13333	5.21305E-003	5.39347E-003	5.03600E-004	...........
	16	4.39167	5.27855E-003	5.23637E-003	5.06367E-004	...........
	17	4.65	5.30388E-003	4.78548E-003	5.05233E-004	...........
	18	4.90833	5.25961E-003	4.84194E-003	5.04633E-004	...........
EOC	QUANT	0.0052596	Open Circuit (V)
PSTATMODEL	IQUANT	4	Pstat Model
PSTATSECTION	LABEL	REF600-11020	Pstat Section
PSTATSERIALNO	LABEL	11020	Pstat Serial Number
CTRLMODE	IQUANT	1	Control Mode
IESTAB	IQUANT	0	I/E Stability
CASPEED	IQUANT	1	Control Amp Speed
CONVENTION	IQUANT	1	Current Convention
ICHRANGE	IQUANT	2	Ich Range
ICHRANGEMODE	TOGGLE	F	Ich Auto Range
ICHOFFSETENABLE	TOGGLE	T	Ich Offset Enable
ICHOFFSET	QUANT	0	Ich Offset (V)
ICHFILTER	IQUANT	3	Ich Filter
VCHRANGE	IQUANT	2	Vch Range
VCHRANGEMODE	TOGGLE	F	Vch Auto Range
VCHOFFSETENABLE	TOGGLE	T	Vch Offset Enable
VCHOFFSET	QUANT	0	Vch Offset (V)
VCHFILTER	IQUANT	3	Vch Filter
ACHRANGE	IQUANT	2	Ach Range
ACHOFFSETENABLE	TOGGLE	F	Ach Offset Enable
ACHOFFSET	QUANT	0	Ach Offset (V)
ACHFILTER	IQUANT	3	Ach Filter
IERANGELOWERLIMIT	IQUANT	1	I/E Range Lower Limit
IERANGEMODE	TOGGLE	F	I/E AutoRange
IERANGE	IQUANT	4	I/E Range
POSFEEDENABLE	TOGGLE	F	Positive Feedback IR Comp
POSFEEDRESISTANCE	QUANT	0	Positive Feedback Resistance (ohm)
ACHSELECT	IQUANT	0	Ach Select
CABLEID	IQUANT	14	Cable ID
DCCALDATE	LABEL	8/19/2019	DC Calibration Date
ACCALDATE	LABEL	8/19/2019	AC Calibration Date
THERMOSELECT	IQUANT	1	Thermo Select
FRAMEWORKVERSION	QUANT	6.33	Framework Version
INSTRUMENTVERSION	LABEL	3.50	Instrument Version
ZCURVE	TABLE
	Pt	Time	Freq	Zreal	Zimag	Zsig	Zmod	Zphz	Idc	Vdc	IERange
	#	s	Hz	ohm	ohm	V	ohm	°	A	V	#
	0	1	1000078	2199.573	-2127.825	1	3060.354	-44.05013	6.21523E-006	0.006883	8
	1	3	794390.6	2636.327	-2198.429	1	3432.683	-39.82467	-5.211831E-006	0.0073892	8
	2	4	630984.4	3099.529	-2177.949	1	3788.211	-35.0946	5.960161E-006	0.0069325	8
	3	6	501234.4	3498.703	-2120.814	1	4091.305	-31.22305	-9.814793E-008	0.007293	8
	4	7	398109.4	3901.456	-1993.017	1	4381.036	-27.05972	1.779737E-006	0.0071297	8
	5	8	316265.6	4244.792	-1825.709	1	4620.765	-23.27281	-8.811723E-007	0.0072078	8
	6	10	251203.1	4518.992	-1641.804	1	4807.994	-19.96669	5.609788E-006	0.0057398	8
	7	11	199546.9	4752.083	-1445.023	1	4966.929	-16.91358	3.450692E-006	0.0067491	8
	8	12	158578.1	4926.03	-1274.628	1	5088.266	-14.5073	-6.129987E-007	0.0065335	8
	9	14	125953.1	5107.874	-1074.783	1	5219.726	-11.88265	2.570782E-006	0.0012273	7
	10	15	100078.1	5199.919	-947.4016	1	5285.521	-10.32577	9.918141E-007	0.0060648	7
	11	17	79453.13	5285.766	-842.9886	1	5352.565	-9.061379	-1.190388E-006	0.0081652	7
	12	18	63140.62	5360.071	-766.7911	1	5414.64	-8.141276	-1.022351E-006	0.007262	7
	13	19	50203.12	5429.153	-711.0071	1	5475.512	-7.46105	1.075926E-006	0.0056491	7
	14	21	39890.62	5486.119	-666.3859	1	5526.442	-6.925654	-1.020945E-006	0.0072626	7
	15	22	31640.63	5543.376	-645.9609	1	5580.886	-6.646611	4.742638E-007	0.005127	7
	16	23	25171.88	5591.56	-639.827	1	5628.048	-6.527808	-6.087072E-007	0.0083127	7
	17	25	20015.62	5638.887	-652.1111	1	5676.468	-6.596687	-1.187599E-006	0.0078122	7
	18	26	15890.62	5698.594	-674.9067	1	5738.42	-6.754301	7.63747E-007	0.0050233	7
	19	27	12609.37	5750.683	-720.559	1	5795.65	-7.141924	1.080457E-006	0.0056404	7
	20	29	10078.13	5802.823	-784.0742	1	5855.556	-7.695168	5.951491E-007	0.0069629	7
	21	30	8015.625	5855.893	-863.4354	1	5919.206	-8.38767	9.636258E-007	0.0050902	7
	22	31	6328.125	5917.787	-992.01	1	6000.357	-9.51612	1.068201E-006	0.0053181	7
	23	33	5015.625	5972.542	-1138.099	1	6080.01	-10.78867	-1.07283E-006	0.0083396	7
	24	34	3984.375	6041.424	-1318.053	1	6183.532	-12.30733	-8.762448E-007	0.008397	7
	25	36	3170.956	6111.019	-1559.763	1	6306.934	-14.31834	-1.072831E-006	0.008339	7
	26	37	2527.573	6194.805	-1845.116	1	6463.75	-16.58611	-1.195179E-006	0.0081664	7
	27	39	1976.103	6296.26	-2232.253	1	6680.257	-19.52127	-1.072068E-006	0.0083393	7
	28	40	1577.524	6379.395	-2642.028	1	6904.853	-22.4969	-8.771824E-007	0.0084004	7
	29	41	1265.625	6529.193	-3204.156	1	7273.031	-26.13918	1.111972E-007	0.0054123	7
	30	43	998.264	6688.227	-3900.775	1	7742.637	-30.25202	8.234597E-007	0.006537	7
	31	44	796.875	6863.932	-4718.52	1	8329.346	-34.50607	1.068534E-006	0.0053185	7
	32	46	627.7902	7082.658	-5779.6	1	9141.544	-39.21518	6.00299E-007	0.006973	7
	33	47	505.5147	7335.215	-6957.101	1	10109.73	-43.48455	-6.072395E-007	0.0083212	7
	34	48	397.9953	7670.441	-8568.771	1	11500.41	-48.16629	1.535781E-009	0.0067737	7
	35	50	315.5048	8086.014	-10494.26	1	13248.14	-52.38511	1.071349E-009	0.006718	6
	36	51	252.4038	8582.554	-12766.7	1	15383.4	-56.0886	3.884627E-010	0.0067127	6
	37	53	198.6229	9273.901	-15762.88	1	18288.62	-59.53009	1.019199E-009	0.0067059	6
	38	54	158.3615	10131.68	-19234.42	1	21739.68	-62.2221	7.109931E-011	0.0067154	6
	39	55	125.558	11293.08	-23578.69	1	26143.61	-64.40777	9.620139E-010	0.006713	6
	40	57	100.4464	12808.12	-28609.16	1	31345.37	-65.88227	-9.741735E-012	0.0067229	6
	41	58	79.00281	14944.26	-35280.35	1	38314.93	-67.04316	7.612945E-011	0.0067203	6
	42	59	63.3446	17238.79	-42634.89	1	45988.15	-67.98477	5.173315E-010	0.0067156	6
	43	61	49.86702	21542.31	-51480.97	1	55806.46	-67.29304	-1.354873E-010	0.0067176	6
	44	62	39.72458	26495.03	-62066.87	1	67485.42	-66.88339	1.160187E-009	0.0067139	6
	45	64	31.6723	33014.17	-74223.34	1	81234.48	-66.02074	1.42381E-009	0.00672	6
	46	65	24.93351	41759.99	-88147.14	1	97538.8	-64.6506	3.943889E-010	0.0067169	6
	47	66	19.86229	52415.68	-102787.9	1	115380.9	-62.98114	8.406005E-010	0.0067103	5
	48	68	15.83615	65367.55	-119659.6	1	136350	-61.35314	-9.664634E-010	0.006721	5
	49	69	12.40079	82049.82	-138151.1	1	160679.5	-59.29334	1.137141E-009	0.0067239	5
	50	70	9.93114	98687.7	-154756.1	1	183544.8	-57.47441	5.946605E-010	0.0067082	5
	51	72	7.944915	116820.3	-173337.5	1	209028.4	-56.0221	-2.564405E-010	0.0067128	5
	52	74	6.317385	137142.5	-194611.1	1	238078.8	-54.82764	1.083295E-010	0.006715	5
	53	76	5.008013	158790	-218741.8	1	270300.3	-54.02319	1.913452E-011	0.0067118	5
	54	78	3.945707	181893.8	-247497.5	1	307148.8	-53.68664	3.881648E-010	0.0067229	5
	55	81	3.158693	204636.4	-279965.7	1	346780.7	-53.83566	-4.895451E-011	0.0067049	5
	56	84	2.504006	230459.3	-320371.3	1	394650.8	-54.27063	5.478328E-010	0.0067143	5
	57	87	1.998082	258301	-367418.8	1	449128	-54.8922	2.790155E-010	0.0067496	5
	58	90	1.584686	289223.4	-425040.1	1	514110.2	-55.76622	2.507375E-010	0.0066986	5
	59	94	1.266892	325583	-493622.7	1	591327	-56.59201	2.079867E-010	0.0067542	5
	60	98	0.999041	369215.6	-579598.3	1	687207.6	-57.50206	8.446745E-011	0.0066756	5
