EXPLAIN
TAG	EISPOT
TITLE	LABEL	Potentiostatic EIS	Test &Identifier
DATE	LABEL	11/15/2019	Date
TIME	LABEL	12:37:15	Time
NOTES	NOTES	4	&Notes...
	
	
	
	
PSTAT	PSTAT	REF600-11020	Potentiostat
VDC	POTEN	0.00000E+000	T	DC &Voltage (V)
FREQINIT	QUANT	1.00000E+006	Initial Fre&q. (Hz)
FREQFINAL	QUANT	1.00000E+000	Final Fre&q. (Hz)
PTSPERDEC	QUANT	1.00000E+001	Points/&decade
VAC	QUANT	2.50000E+001	AC &Voltage (mV rms)
AREA	QUANT	1.00000E-002	&Area (cm^2)
CONDIT	TWOPARAM	T	5.00000E+000	0.00000E+000	Conditionin&g	Time(s)	E(V)
DELAY	TWOPARAM	T	5.00000E+000	0.00000E+000	Init. De&lay	Time(s)	Stab.(mV/s)
SPEED	SELECTOR	0	&Optimize for:
ZGUESS	QUANT	1.00000E+005	E&stimated Z (ohms)
OCVCURVE	TABLE	19
	Pt	T	Vf	Vm	Ach	Over
	#	s	V vs. Ref.	V	V	bits
	0	0.258333	6.18562E-003	6.18563E-003	5.76666E-004	...........
	1	0.516667	6.18521E-003	6.16381E-003	5.74865E-004	...........
	2	0.775	6.18301E-003	6.16219E-003	5.71332E-004	...........
	3	1.03333	6.17819E-003	6.16994E-003	5.77466E-004	...........
	4	1.29167	6.17296E-003	6.19146E-003	5.74299E-004	...........
	5	1.55	6.17194E-003	6.21579E-003	5.74799E-004	...........
	6	1.80833	6.17885E-003	6.24848E-003	5.75199E-004	...........
	7	2.06667	6.19460E-003	6.27873E-003	5.78399E-004	...........
	8	2.325	6.21774E-003	6.31153E-003	5.84699E-004	...........
	9	2.58333	6.24598E-003	6.35016E-003	5.71699E-004	...........
	10	2.84167	6.27756E-003	6.38905E-003	5.79566E-004	...........
	11	3.1	6.31187E-003	6.43449E-003	5.73999E-004	...........
	12	3.35833	6.34895E-003	6.47549E-003	5.77232E-004	...........
	13	3.61667	6.38854E-003	6.51612E-003	5.77366E-004	...........
	14	3.875	6.42981E-003	6.56187E-003	5.73132E-004	...........
	15	4.13333	6.47194E-003	6.60455E-003	5.68766E-004	...........
	16	4.39167	6.51469E-003	6.65064E-003	5.72232E-004	...........
	17	4.65	6.55818E-003	6.69816E-003	5.67699E-004	...........
	18	4.90833	6.60261E-003	6.74455E-003	5.70866E-004	...........
EOC	QUANT	0.0066026	Open Circuit (V)
PSTATMODEL	IQUANT	4	Pstat Model
PSTATSECTION	LABEL	REF600-11020	Pstat Section
PSTATSERIALNO	LABEL	11020	Pstat Serial Number
CTRLMODE	IQUANT	1	Control Mode
IESTAB	IQUANT	0	I/E Stability
CASPEED	IQUANT	1	Control Amp Speed
CONVENTION	IQUANT	1	Current Convention
ICHRANGE	IQUANT	2	Ich Range
ICHRANGEMODE	TOGGLE	F	Ich Auto Range
ICHOFFSETENABLE	TOGGLE	T	Ich Offset Enable
ICHOFFSET	QUANT	0	Ich Offset (V)
ICHFILTER	IQUANT	3	Ich Filter
VCHRANGE	IQUANT	2	Vch Range
VCHRANGEMODE	TOGGLE	F	Vch Auto Range
VCHOFFSETENABLE	TOGGLE	T	Vch Offset Enable
VCHOFFSET	QUANT	0	Vch Offset (V)
VCHFILTER	IQUANT	3	Vch Filter
ACHRANGE	IQUANT	2	Ach Range
ACHOFFSETENABLE	TOGGLE	F	Ach Offset Enable
ACHOFFSET	QUANT	0	Ach Offset (V)
ACHFILTER	IQUANT	3	Ach Filter
IERANGELOWERLIMIT	IQUANT	1	I/E Range Lower Limit
IERANGEMODE	TOGGLE	F	I/E AutoRange
IERANGE	IQUANT	5	I/E Range
POSFEEDENABLE	TOGGLE	F	Positive Feedback IR Comp
POSFEEDRESISTANCE	QUANT	0	Positive Feedback Resistance (ohm)
ACHSELECT	IQUANT	0	Ach Select
CABLEID	IQUANT	14	Cable ID
DCCALDATE	LABEL	8/19/2019	DC Calibration Date
ACCALDATE	LABEL	8/19/2019	AC Calibration Date
THERMOSELECT	IQUANT	1	Thermo Select
FRAMEWORKVERSION	QUANT	6.33	Framework Version
INSTRUMENTVERSION	LABEL	3.50	Instrument Version
ZCURVE	TABLE
	Pt	Time	Freq	Zreal	Zimag	Zsig	Zmod	Zphz	Idc	Vdc	IERange
	#	s	Hz	ohm	ohm	V	ohm	°	A	V	#
	0	1	1000078	1780.44	-776.1757	1	1942.27	-23.55461	9.106445E-007	0.0092365	8
	1	1	794390.6	1904.732	-730.9349	1	2040.164	-20.99415	-1.289546E-006	0.0079268	8
	2	2	630984.4	2005.443	-677.696	1	2116.855	-18.67156	2.509411E-006	0.0076678	8
	3	2	501234.4	2104.466	-623.1078	1	2194.776	-16.4934	-1.312999E-006	0.0086232	8
	4	2	398109.4	2183.083	-579.0584	1	2258.574	-14.8555	-1.601926E-006	0.007854	8
	5	2	316265.6	2252.059	-537.2193	1	2315.249	-13.41693	-2.136623E-006	0.0082454	8
	6	3	251203.1	2314.181	-504.623	1	2368.561	-12.30118	-2.676758E-006	0.0086093	8
	7	3	199546.9	2368.856	-475.5134	1	2416.111	-11.35044	-1.693315E-007	0.0077873	8
	8	3	158578.1	2417.21	-461.5559	1	2460.882	-10.81026	-7.3499E-007	0.0077925	8
	9	4	125953.1	2480.78	-421.0627	1	2516.26	-9.63301	-1.303679E-006	0.0116267	7
	10	4	100078.1	2527.173	-420.6856	1	2561.948	-9.451075	-9.873964E-007	0.0095458	7
	11	4	79453.13	2574.988	-433.9752	1	2611.302	-9.56644	-7.957766E-007	0.0095711	7
	12	5	63140.62	2626.631	-453.5755	1	2665.505	-9.79741	1.009503E-007	0.0088742	7
	13	5	50203.12	2681.814	-478.4922	1	2724.167	-10.11632	9.329169E-007	0.0073453	7
	14	5	39890.62	2739.657	-505.2449	1	2785.856	-10.44903	1.008036E-007	0.0088684	7
	15	6	31640.63	2800.054	-537.8812	1	2851.249	-10.87387	-6.877773E-007	0.0079406	7
	16	6	25171.88	2865.024	-576.3776	1	2922.427	-11.37477	-5.391149E-007	0.0094791	7
	17	6	20015.62	2929.75	-619.8661	1	2994.607	-11.94626	-9.907249E-007	0.0095356	7
	18	7	15890.62	3002.064	-674.3326	1	3076.867	-12.65982	-9.745492E-007	0.0085581	7
	19	7	12609.37	3079.023	-737.8182	1	3166.19	-13.47554	1.028788E-007	0.0088705	7
	20	7	10078.13	3154.823	-813.1448	1	3257.93	-14.45321	7.559076E-008	0.006829	7
	21	8	8015.625	3234.268	-902.7944	1	3357.906	-15.59623	-7.975204E-007	0.0095671	7
	22	8	6328.125	3326.139	-1016.666	1	3478.047	-16.99627	-3.082115E-007	0.0072997	7
	23	8	5015.625	3425.228	-1152.969	1	3614.073	-18.60379	8.67855E-007	0.0065031	7
	24	8	3984.375	3527.917	-1309.058	1	3762.956	-20.35772	-1.125207E-006	0.0090707	7
	25	9	3170.956	3644.056	-1498.36	1	3940.08	-22.35145	7.447186E-008	0.0068271	7
	26	9	2527.573	3769.773	-1722.059	1	4144.475	-24.55125	5.865666E-007	0.0081598	7
	27	9	1976.103	3917.032	-2013.842	1	4404.396	-27.2088	9.997885E-007	0.0069664	7
	28	10	1577.524	4055.092	-2341.729	1	4682.678	-30.00552	9.348813E-007	0.0073361	7
	29	10	1265.625	4210.72	-2717.525	1	5011.497	-32.83749	5.865292E-007	0.0081614	7
	30	10	998.264	4383.841	-3218.93	1	5438.71	-36.28878	1.008063E-007	0.0088613	7
	31	11	796.875	4572.036	-3816.808	1	5955.798	-39.85567	7.748423E-007	0.0077724	7
	32	11	627.7902	4794.78	-4598.48	1	6643.488	-43.80281	7.781919E-007	0.0077783	7
	33	11	505.5147	5036.686	-5464.092	1	7431.32	-47.33078	3.978354E-007	0.0084448	7
	34	12	397.9953	5375.602	-6644.857	1	8547.001	-51.0276	3.60104E-009	0.008048	7
	35	12	315.5048	5785.375	-8054.804	1	9917.18	-54.31215	7.774284E-011	0.0080539	7
	36	12	252.4038	6293.223	-9703.55	1	11565.62	-57.03465	2.077277E-010	0.0079919	6
	37	13	198.6229	6994.708	-11845.5	1	13756.52	-59.43836	9.29546E-010	0.0079927	6
	38	13	158.3615	7851.5	-14280.32	1	16296.43	-61.19745	-6.789783E-010	0.0079935	6
	39	13	125.558	8990.158	-17252.23	1	19454.11	-62.47593	-1.35978E-009	0.0079963	6
	40	14	100.4464	10411.49	-20655.09	1	23130.76	-63.24897	-3.421249E-010	0.0079881	6
	41	14	79.00281	12336.06	-24963.3	1	27845.01	-63.7029	7.282931E-010	0.0079895	6
	42	14	63.3446	14556.58	-29222.73	1	32647.54	-63.52094	5.488984E-010	0.0079796	6
	43	15	49.86702	17742.87	-35035.57	1	39272.13	-63.14123	-5.871056E-010	0.0079792	6
	44	15	39.72458	21327.92	-41446.05	1	46611.75	-62.76989	-4.974451E-010	0.0079858	6
	45	15	31.6723	25778.85	-48626.92	1	55037.5	-62.07036	-1.093812E-009	0.0079841	6
	46	16	24.93351	31625.59	-56753.32	1	64970.13	-60.87141	-1.07006E-009	0.0079789	6
	47	16	19.86229	38034.38	-65668.88	1	75888.18	-59.92126	-1.781263E-009	0.0079812	6
	48	16	15.83615	45586.84	-74461.85	1	87308.23	-58.52431	3.46167E-009	0.0079782	6
	49	17	12.40079	54326.78	-85879.67	1	101620.5	-57.68289	-1.847106E-009	0.0079908	6
	50	17	9.93114	63041.08	-97971.2	1	116501.3	-57.24013	8.737844E-010	0.0079883	5
	51	18	7.944915	72522.65	-111100	1	132675.4	-56.86475	6.285739E-010	0.0079797	5
	52	18	6.317385	83019.07	-127125.8	1	151832.6	-56.8536	9.242006E-011	0.0079861	5
	53	19	5.008013	94250.35	-146351.9	1	174074.7	-57.21854	-3.238801E-010	0.0079817	5
	54	20	3.945707	106508.2	-170014.2	1	200621.1	-57.93423	-2.330472E-011	0.0079895	5
	55	21	3.158693	119465.5	-197234.3	1	230593.5	-58.79656	-2.508334E-010	0.0079807	5
	56	23	2.504006	134192.6	-231767.6	1	267813.1	-59.92932	-2.931377E-010	0.0079766	5
	57	24	1.998082	151019.8	-271979.7	1	311094.8	-60.95829	2.561944E-011	0.0080165	5
	58	26	1.584686	170313.8	-322809.5	1	364983.3	-62.18394	-5.863131E-011	0.0080079	5
	59	28	1.266892	193343.7	-380889.5	1	427151.7	-63.08714	-1.343771E-010	0.007972	5
	60	30	0.999041	223568.1	-455781.1	1	507660.4	-63.8713	-1.8384E-010	0.0079489	5
