EXPLAIN
TAG	EISPOT
TITLE	LABEL	Potentiostatic EIS	Test &Identifier
DATE	LABEL	11/7/2019	Date
TIME	LABEL	9:12:58	Time
NOTES	NOTES	2	&Notes...
	
	
PSTAT	PSTAT	REF600-11020	Potentiostat
VDC	POTEN	0.00000E+000	T	DC &Voltage (V)
FREQINIT	QUANT	1.00000E+006	Initial Fre&q. (Hz)
FREQFINAL	QUANT	1.00000E+000	Final Fre&q. (Hz)
PTSPERDEC	QUANT	1.00000E+001	Points/&decade
VAC	QUANT	2.50000E+001	AC &Voltage (mV rms)
AREA	QUANT	1.00000E-002	&Area (cm^2)
CONDIT	TWOPARAM	T	5.00000E+000	0.00000E+000	Conditionin&g	Time(s)	E(V)
DELAY	TWOPARAM	T	5.00000E+000	0.00000E+000	Init. De&lay	Time(s)	Stab.(mV/s)
SPEED	SELECTOR	1	&Optimize for:
ZGUESS	QUANT	1.00000E+005	E&stimated Z (ohms)
OCVCURVE	TABLE	19
	Pt	T	Vf	Vm	Ach	Over
	#	s	V vs. Ref.	V	V	bits
	0	0.258333	3.79666E-003	3.79666E-003	5.76099E-004	...........
	1	0.516667	3.79488E-003	3.70346E-003	5.73732E-004	...........
	2	0.775	3.78382E-003	3.60856E-003	5.71566E-004	...........
	3	1.03333	3.75143E-003	3.48132E-003	5.74632E-004	...........
	4	1.29167	3.69063E-003	3.40994E-003	5.71132E-004	...........
	5	1.55	3.60718E-003	3.35185E-003	5.75699E-004	...........
	6	1.80833	3.51783E-003	3.35572E-003	5.74232E-004	...........
	7	2.06667	3.44081E-003	3.32035E-003	5.74632E-004	...........
	8	2.325	3.38552E-003	3.30387E-003	5.73799E-004	...........
	9	2.58333	3.34945E-003	3.28690E-003	5.76799E-004	...........
	10	2.84167	3.32258E-003	3.15643E-003	5.75966E-004	...........
	11	3.1	3.29221E-003	3.16047E-003	5.74565E-004	...........
	12	3.35833	3.25207E-003	3.15738E-003	5.73666E-004	...........
	13	3.61667	3.20988E-003	3.15073E-003	5.79699E-004	...........
	14	3.875	3.17873E-003	3.19090E-003	5.78566E-004	...........
	15	4.13333	3.16425E-003	3.15941E-003	5.71432E-004	...........
	16	4.39167	3.16144E-003	3.11059E-003	5.70566E-004	...........
	17	4.65	3.15860E-003	3.11256E-003	5.71766E-004	...........
	18	4.90833	3.14794E-003	3.10547E-003	5.72166E-004	...........
EOC	QUANT	0.0031479	Open Circuit (V)
PSTATMODEL	IQUANT	4	Pstat Model
PSTATSECTION	LABEL	REF600-11020	Pstat Section
PSTATSERIALNO	LABEL	11020	Pstat Serial Number
CTRLMODE	IQUANT	1	Control Mode
IESTAB	IQUANT	0	I/E Stability
CASPEED	IQUANT	1	Control Amp Speed
CONVENTION	IQUANT	1	Current Convention
ICHRANGE	IQUANT	2	Ich Range
ICHRANGEMODE	TOGGLE	F	Ich Auto Range
ICHOFFSETENABLE	TOGGLE	T	Ich Offset Enable
ICHOFFSET	QUANT	0	Ich Offset (V)
ICHFILTER	IQUANT	3	Ich Filter
VCHRANGE	IQUANT	2	Vch Range
VCHRANGEMODE	TOGGLE	F	Vch Auto Range
VCHOFFSETENABLE	TOGGLE	T	Vch Offset Enable
VCHOFFSET	QUANT	0	Vch Offset (V)
VCHFILTER	IQUANT	3	Vch Filter
ACHRANGE	IQUANT	2	Ach Range
ACHOFFSETENABLE	TOGGLE	F	Ach Offset Enable
ACHOFFSET	QUANT	0	Ach Offset (V)
ACHFILTER	IQUANT	3	Ach Filter
IERANGELOWERLIMIT	IQUANT	1	I/E Range Lower Limit
IERANGEMODE	TOGGLE	F	I/E AutoRange
IERANGE	IQUANT	4	I/E Range
POSFEEDENABLE	TOGGLE	F	Positive Feedback IR Comp
POSFEEDRESISTANCE	QUANT	0	Positive Feedback Resistance (ohm)
ACHSELECT	IQUANT	0	Ach Select
CABLEID	IQUANT	14	Cable ID
DCCALDATE	LABEL	8/19/2019	DC Calibration Date
ACCALDATE	LABEL	8/19/2019	AC Calibration Date
THERMOSELECT	IQUANT	1	Thermo Select
FRAMEWORKVERSION	QUANT	6.33	Framework Version
INSTRUMENTVERSION	LABEL	3.50	Instrument Version
ZCURVE	TABLE
	Pt	Time	Freq	Zreal	Zimag	Zsig	Zmod	Zphz	Idc	Vdc	IERange
	#	s	Hz	ohm	ohm	V	ohm	°	A	V	#
	0	1	1000078	1969.635	-910.3997	1	2169.86	-24.8072	2.027859E-006	0.0061295	8
	1	2	794390.6	2122.238	-855.7842	1	2288.287	-21.96157	-7.272281E-006	0.0056737	8
	2	4	630984.4	2256.163	-793.3831	1	2391.595	-19.3743	-9.985997E-008	0.0055492	8
	3	5	501234.4	2375.895	-718.6863	1	2482.214	-16.83008	2.710612E-006	0.0042911	8
	4	7	398109.4	2470.466	-634.7662	1	2550.712	-14.40997	2.131667E-006	0.0051617	8
	5	8	316265.6	2547.294	-553.3051	1	2606.694	-12.25501	6.602981E-006	0.0035683	8
	6	9	251203.1	2612.123	-496.017	1	2658.8	-10.7519	-3.24337E-006	0.0054146	8
	7	11	199546.9	2667.255	-429.9478	1	2701.686	-9.157015	9.775011E-007	0.0052227	8
	8	12	158578.1	2676.199	-367.5045	1	2701.315	-7.819139	-4.927422E-006	0.0051883	8
	9	13	125953.1	2768.126	-297.658	1	2784.084	-6.13746	-1.793021E-006	0.0045039	7
	10	15	100078.1	2796.262	-272.7789	1	2809.536	-5.571645	1.057121E-006	0.0040009	7
	11	16	79453.13	2817.955	-257.3267	1	2829.68	-5.217597	6.543773E-007	0.0049383	7
	12	17	63140.62	2840.9	-246.9015	1	2851.609	-4.967072	-2.78045E-007	0.0061512	7
	13	19	50203.12	2862.978	-240.4504	1	2873.057	-4.800784	-1.268002E-006	0.0059233	7
	14	20	39890.62	2887.919	-241.9177	1	2898.034	-4.788423	4.333301E-007	0.0052685	7
	15	21	31640.63	2911.103	-246.2094	1	2921.496	-4.834342	6.568465E-007	0.0049285	7
	16	23	25171.88	2931.075	-254.4895	1	2942.103	-4.962241	-3.353105E-007	0.0039079	7
	17	24	20015.62	2948.136	-264.3077	1	2959.96	-5.123012	-9.119969E-007	0.0065052	7
	18	25	15890.62	2979.267	-291.9149	1	2993.534	-5.596098	1.059406E-006	0.0039932	7
	19	27	12609.37	3000.995	-321.2384	1	3018.139	-6.109903	-9.123173E-007	0.0065044	7
	20	28	10078.13	3017.5	-350.0912	1	3037.741	-6.617884	4.82154E-007	0.0030642	7
	21	30	8015.625	3051.693	-402.5735	1	3078.132	-7.514957	-1.095214E-006	0.0053309	7
	22	31	6328.125	3083.624	-463.5067	1	3118.265	-8.548266	1.061371E-007	0.0033725	7
	23	32	5015.625	3114.53	-536.773	1	3160.447	-9.77857	-1.12832E-006	0.0064591	7
	24	34	3984.375	3151.41	-633.2861	1	3214.411	-11.36244	4.841261E-007	0.0030607	7
	25	35	3170.956	3187.632	-739.5903	1	3272.307	-13.06257	4.335317E-007	0.0052691	7
	26	36	2527.573	3227.446	-874.2869	1	3343.768	-15.15716	-1.097425E-006	0.0053251	7
	27	38	1976.103	3280.126	-1056.207	1	3445.983	-17.84866	1.059184E-006	0.0039883	7
	28	39	1577.524	3332.985	-1267.056	1	3565.701	-20.81463	-6.234654E-007	0.0064067	7
	29	40	1265.625	3387.45	-1515.415	1	3710.97	-24.10191	7.880425E-007	0.00294	7
	30	42	998.264	3460.057	-1845.106	1	3921.276	-28.06917	8.77235E-007	0.0044945	7
	31	43	796.875	3540.076	-2232.839	1	4185.416	-32.24094	1.14007E-006	0.0035573	7
	32	44	627.7902	3640.542	-2731.312	1	4551.22	-36.87902	-9.131999E-007	0.0065037	7
	33	46	505.5147	3755.023	-3304.292	1	5001.854	-41.34668	7.89013E-007	0.0029368	7
	34	47	397.9953	3911.514	-4066.949	1	5642.696	-46.11609	3.531195E-009	0.0047858	7
	35	49	315.5048	4102.444	-4986.301	1	6457.03	-50.5544	8.034754E-009	0.004776	7
	36	50	252.4038	4333.02	-6066.962	1	7455.407	-54.4656	5.166083E-009	0.0047831	7
	37	51	198.6229	4652.76	-7489.951	1	8817.456	-58.15143	4.039946E-009	0.0047875	7
	38	53	158.3615	5048.064	-9138.068	1	10439.7	-61.0828	1.595807E-009	0.0047129	6
	39	54	125.558	5567.717	-11191.66	1	12500.11	-63.5502	1.252164E-009	0.0047157	6
	40	55	100.4464	6228.929	-13578.84	1	14939.36	-65.35797	8.290301E-010	0.0047292	6
	41	57	79.00281	7136.034	-16670.04	1	18133.2	-66.82542	8.478889E-010	0.0047239	6
	42	58	63.3446	8091.394	-20055.73	1	21626.44	-68.02861	5.423655E-010	0.0047244	6
	43	59	49.86702	9869.5	-24561.92	1	26470.64	-68.10869	-2.647822E-011	0.0047143	6
	44	61	39.72458	11706.44	-29706.04	1	31929.45	-68.49178	-2.478072E-010	0.004726	6
	45	62	31.6723	14150.5	-35614.31	1	38322.52	-68.33078	6.999442E-010	0.0047178	6
	46	64	24.93351	17422.28	-43028.07	1	46421.45	-67.95673	2.71675E-010	0.00472	6
	47	65	19.86229	21400.51	-51255.77	1	55544	-67.33829	1.376425E-009	0.0047238	6
	48	66	15.83615	26156.91	-60185.04	1	65623.34	-66.50984	1.267038E-009	0.0047281	6
	49	68	12.40079	33151.45	-72311.53	1	79548.58	-65.37077	-1.138421E-009	0.0047233	6
	50	69	9.93114	40226.01	-84547.63	1	93629.23	-64.55586	-6.190087E-010	0.004733	6
	51	71	7.944915	49093.34	-98257.9	1	109839.8	-63.45157	1.073359E-009	0.0047228	5
	52	72	6.317385	59592.82	-114146.1	1	128765.8	-62.43206	9.048973E-010	0.0047278	5
	53	74	5.008013	72395.28	-132412.4	1	150911	-61.33276	6.388263E-010	0.0047435	5
	54	77	3.945707	87633.5	-153416.9	1	176681.6	-60.2645	-1.550861E-010	0.0047186	5
	55	80	3.158693	103616.4	-175337.7	1	203665.6	-59.41889	4.448952E-010	0.0047489	5
	56	83	2.504006	122509.2	-201237.9	1	235595.4	-58.66787	-5.358025E-010	0.0047256	5
	57	86	1.998082	142209.9	-229310	1	269827.3	-58.19428	-2.291631E-011	0.0046936	5
	58	89	1.584686	163300.3	-262198.5	1	308893.2	-58.08486	6.937007E-012	0.0047482	5
	59	92	1.266892	185885.8	-301174.3	1	353920.2	-58.31697	-8.553568E-012	0.0046928	5
	60	97	0.999041	211335.2	-349824.7	1	408705.2	-58.86309	2.438281E-010	0.0047669	5
