EXPLAIN
TAG	EISPOT
TITLE	LABEL	Potentiostatic EIS	Test &Identifier
DATE	LABEL	10/28/2019	Date
TIME	LABEL	10:38:08	Time
NOTES	NOTES	1	&Notes...
	
PSTAT	PSTAT	REF600-11020	Potentiostat
VDC	POTEN	0.00000E+000	T	DC &Voltage (V)
FREQINIT	QUANT	1.00000E+006	Initial Fre&q. (Hz)
FREQFINAL	QUANT	1.00000E+000	Final Fre&q. (Hz)
PTSPERDEC	QUANT	1.00000E+001	Points/&decade
VAC	QUANT	2.50000E+001	AC &Voltage (mV rms)
AREA	QUANT	1.00000E-002	&Area (cm^2)
CONDIT	TWOPARAM	T	5.00000E+000	0.00000E+000	Conditionin&g	Time(s)	E(V)
DELAY	TWOPARAM	T	5.00000E+000	0.00000E+000	Init. De&lay	Time(s)	Stab.(mV/s)
SPEED	SELECTOR	1	&Optimize for:
ZGUESS	QUANT	1.00000E+005	E&stimated Z (ohms)
OCVCURVE	TABLE	19
	Pt	T	Vf	Vm	Ach	Over
	#	s	V vs. Ref.	V	V	bits
	0	0.258333	5.88413E-003	5.88413E-003	5.62332E-004	...........
	1	0.516667	5.88356E-003	5.85476E-003	5.58533E-004	...........
	2	0.775	5.88017E-003	5.82967E-003	5.57666E-004	...........
	3	1.03333	5.87140E-003	5.83961E-003	5.55799E-004	...........
	4	1.29167	5.85884E-003	5.84708E-003	5.52166E-004	...........
	5	1.55	5.84881E-003	5.87704E-003	5.59932E-004	...........
	6	1.80833	5.84727E-003	5.89140E-003	5.57399E-004	...........
	7	2.06667	5.85594E-003	5.92724E-003	5.58266E-004	...........
	8	2.325	5.87299E-003	5.94792E-003	5.60432E-004	...........
	9	2.58333	5.89532E-003	5.96669E-003	5.65999E-004	...........
	10	2.84167	5.92014E-003	6.01586E-003	5.60699E-004	...........
	11	3.1	5.94686E-003	6.05317E-003	5.57466E-004	...........
	12	3.35833	5.97687E-003	6.07715E-003	5.56733E-004	...........
	13	3.61667	6.00957E-003	6.09015E-003	5.59099E-004	...........
	14	3.875	6.04142E-003	6.12842E-003	5.60166E-004	...........
	15	4.13333	6.07060E-003	6.17430E-003	5.61266E-004	...........
	16	4.39167	6.09949E-003	6.19667E-003	5.64366E-004	...........
	17	4.65	6.13062E-003	6.23215E-003	5.68666E-004	...........
	18	4.90833	6.16350E-003	6.26591E-003	5.63732E-004	...........
EOC	QUANT	0.0061635	Open Circuit (V)
PSTATMODEL	IQUANT	4	Pstat Model
PSTATSECTION	LABEL	REF600-11020	Pstat Section
PSTATSERIALNO	LABEL	11020	Pstat Serial Number
CTRLMODE	IQUANT	1	Control Mode
IESTAB	IQUANT	0	I/E Stability
CASPEED	IQUANT	1	Control Amp Speed
CONVENTION	IQUANT	1	Current Convention
ICHRANGE	IQUANT	2	Ich Range
ICHRANGEMODE	TOGGLE	F	Ich Auto Range
ICHOFFSETENABLE	TOGGLE	T	Ich Offset Enable
ICHOFFSET	QUANT	0	Ich Offset (V)
ICHFILTER	IQUANT	3	Ich Filter
VCHRANGE	IQUANT	2	Vch Range
VCHRANGEMODE	TOGGLE	F	Vch Auto Range
VCHOFFSETENABLE	TOGGLE	T	Vch Offset Enable
VCHOFFSET	QUANT	0	Vch Offset (V)
VCHFILTER	IQUANT	3	Vch Filter
ACHRANGE	IQUANT	2	Ach Range
ACHOFFSETENABLE	TOGGLE	F	Ach Offset Enable
ACHOFFSET	QUANT	0	Ach Offset (V)
ACHFILTER	IQUANT	3	Ach Filter
IERANGELOWERLIMIT	IQUANT	1	I/E Range Lower Limit
IERANGEMODE	TOGGLE	F	I/E AutoRange
IERANGE	IQUANT	5	I/E Range
POSFEEDENABLE	TOGGLE	F	Positive Feedback IR Comp
POSFEEDRESISTANCE	QUANT	0	Positive Feedback Resistance (ohm)
ACHSELECT	IQUANT	0	Ach Select
CABLEID	IQUANT	14	Cable ID
DCCALDATE	LABEL	8/19/2019	DC Calibration Date
ACCALDATE	LABEL	8/19/2019	AC Calibration Date
THERMOSELECT	IQUANT	1	Thermo Select
FRAMEWORKVERSION	QUANT	6.33	Framework Version
INSTRUMENTVERSION	LABEL	3.50	Instrument Version
ZCURVE	TABLE
	Pt	Time	Freq	Zreal	Zimag	Zsig	Zmod	Zphz	Idc	Vdc	IERange
	#	s	Hz	ohm	ohm	V	ohm	°	A	V	#
	0	1	1000078	2590.215	-1703.063	1	3099.942	-33.32486	-9.944304E-006	0.0105539	8
	1	3	794390.6	2904.764	-1669.827	1	3350.519	-29.89278	3.296006E-006	0.0082	8
	2	5	630984.4	3214.731	-1530.565	1	3560.495	-25.45958	-1.998832E-006	0.0085582	8
	3	6	501234.4	3460.783	-1393	1	3730.612	-21.92528	5.740514E-006	0.0070267	8
	4	8	398109.4	3665.974	-1216.767	1	3862.627	-18.36143	-1.165075E-006	0.0081369	8
	5	9	316265.6	3836.788	-1060.34	1	3980.611	-15.44874	-3.330955E-006	0.0083334	8
	6	11	251203.1	3964.477	-922.4412	1	4070.378	-13.09833	1.087708E-006	0.0075596	8
	7	12	199546.9	4040.548	-796.4349	1	4118.293	-11.15066	-6.596645E-007	0.0080679	8
	8	14	158578.1	4119.337	-685.6803	1	4176.014	-9.450469	-3.446811E-006	0.008536	8
	9	15	125953.1	4190.786	-571.3181	1	4229.55	-7.763115	-9.675025E-007	0.0102173	7
	10	17	100078.1	4235.679	-506.2987	1	4265.832	-6.816332	1.309785E-008	0.0077146	7
	11	18	79453.13	4276.198	-479.9568	1	4303.048	-6.404027	-5.074053E-008	0.0078199	7
	12	20	63140.62	4318.22	-464.627	1	4343.145	-6.14122	-4.229403E-008	0.0078235	7
	13	21	50203.12	4356.363	-463.0382	1	4380.902	-6.067193	-9.4934E-008	0.0079388	7
	14	22	39890.62	4396.762	-468.8157	1	4421.686	-6.086309	-1.794856E-008	0.0079542	7
	15	24	31640.63	4441.289	-490.5772	1	4468.301	-6.303242	-4.707908E-008	0.0078143	7
	16	25	25171.88	4486.971	-521.5212	1	4517.177	-6.629748	1.611477E-007	0.0075412	7
	17	26	20015.62	4519.357	-543.5797	1	4551.93	-6.858481	-5.356211E-009	0.0078262	7
	18	28	15890.62	4589.485	-613.34	1	4630.288	-7.611921	-5.994334E-008	0.0079758	7
	19	29	12609.37	4653.488	-679.7187	1	4702.868	-8.310226	-6.083877E-008	0.0079687	7
	20	30	10078.13	4706.48	-756.6132	1	4766.909	-9.132724	-5.069209E-008	0.0078082	7
	21	32	8015.625	4789.709	-849.6059	1	4864.478	-10.05859	-5.032952E-008	0.007801	7
	22	33	6328.125	4853.782	-971.2	1	4949.993	-11.31497	-6.648584E-009	0.0078216	7
	23	35	5015.625	4933.601	-1112.017	1	5057.371	-12.70201	4.826673E-008	0.007618	7
	24	36	3984.375	5011.474	-1276.647	1	5171.528	-14.29182	7.948193E-008	0.0076452	7
	25	37	3170.956	5110.723	-1494.053	1	5324.63	-16.29559	-4.878871E-008	0.007809	7
	26	39	2527.573	5207.242	-1742.931	1	5491.191	-18.50605	7.938033E-008	0.0076483	7
	27	40	1976.103	5321.29	-2084.131	1	5714.869	-21.38824	4.795103E-008	0.0077267	7
	28	41	1577.524	5485.702	-2340.792	1	5964.246	-23.10832	-9.273219E-008	0.0079283	7
	29	43	1265.625	5580.936	-2921.233	1	6299.242	-27.62894	-4.901839E-008	0.0078079	7
	30	44	998.264	5746.738	-3513.522	1	6735.714	-31.44137	-2.465988E-008	0.0077525	7
	31	46	796.875	5918.258	-4208.977	1	7262.318	-35.41987	-4.749591E-009	0.007802	7
	32	47	627.7902	6137.955	-5110.467	1	7986.95	-39.7808	-5.136855E-008	0.0078027	7
	33	49	505.5147	6357.712	-6110.509	1	8818.097	-43.86416	4.680619E-008	0.007722	7
	34	50	397.9953	6653.649	-7470.654	1	10004.08	-48.31052	8.843989E-011	0.0077432	6
	35	51	315.5048	6978.603	-9110.281	1	11475.98	-52.54738	1.761556E-009	0.0077423	6
	36	53	252.4038	7351.343	-11051.06	1	13272.84	-56.36752	2.894087E-010	0.007743	6
	37	54	198.6229	7847.493	-13630.34	1	15727.98	-60.06937	4.433439E-010	0.0077419	6
	38	55	158.3615	8431.389	-16649	1	18662.19	-63.14142	1.428201E-009	0.0077392	6
	39	57	125.558	9193.567	-20451.54	1	22422.92	-65.79469	5.048603E-010	0.0077389	6
	40	58	100.4464	10112.91	-24884.57	1	26860.99	-67.88352	1.060264E-009	0.0077371	6
	41	59	79.00281	11452.23	-30968.69	1	33018.38	-69.7056	4.617775E-011	0.0077363	6
	42	61	63.3446	13598.72	-37701.23	1	40078.77	-70.16578	-6.555601E-011	0.0077293	6
	43	62	49.86702	14930.13	-46405.52	1	48748.14	-72.16536	3.634065E-010	0.0077358	6
	44	64	39.72458	18190.62	-56338.44	1	59202.36	-72.10571	2.118234E-010	0.0077354	6
	45	65	31.6723	21697.85	-68608.92	1	71958.19	-72.45023	-3.13933E-010	0.0077395	6
	46	66	24.93351	27266.48	-83952.16	1	88269.05	-72.00693	5.433446E-010	0.0077373	6
	47	68	19.86229	34001.21	-101474.7	1	107019.6	-71.47551	8.160686E-010	0.007745	5
	48	69	15.83615	41274.81	-121343.7	1	128171.4	-71.21436	1.384719E-009	0.0077374	5
	49	70	12.40079	55145.71	-150356.3	1	160150.1	-69.85863	1.776385E-009	0.0077418	5
	50	72	9.93114	69620.53	-175829.7	1	189111.4	-68.3987	4.845396E-010	0.0077339	5
	51	73	7.944915	86591.48	-206615.5	1	224026.9	-67.2617	-5.874122E-010	0.0077373	5
	52	75	6.317385	111320.8	-243788.6	1	268002.2	-65.45721	-2.138864E-010	0.0077343	5
	53	77	5.008013	140860.9	-285321.3	1	318198.1	-63.7248	-2.758497E-010	0.0077285	5
	54	80	3.945707	178289.1	-331301.8	1	376228.5	-61.7132	3.799915E-010	0.0077428	5
	55	82	3.158693	220145.9	-378544.6	1	437904.3	-59.81948	-1.348072E-010	0.0077281	5
	56	85	2.504006	270667	-430621.5	1	508621.2	-57.8486	4.567166E-010	0.0077316	5
	57	88	1.998082	325653	-483186.4	1	582682.6	-56.02122	-1.048199E-010	0.0077761	5
	58	91	1.584686	387046.7	-542479.3	1	666399.9	-54.493	2.22704E-010	0.0077509	5
	59	95	1.266892	452791.8	-602021.1	1	753292.7	-53.05246	-8.258073E-011	0.0077834	5
	60	99	0.999041	525470.1	-672942.8	1	853797.9	-52.01535	1.489428E-010	0.0077079	5
