EXPLAIN
TAG	EISPOT
TITLE	LABEL	Potentiostatic IDE	Test &Identifier
DATE	LABEL	9/4/2019	Date
TIME	LABEL	12:12:37	Time
NOTES	NOTES	1	&Notes...
	
PSTAT	PSTAT	REF600-11020	Potentiostat
VDC	POTEN	0.00000E+000	T	DC &Voltage (V)
FREQINIT	QUANT	1.00000E+006	Initial Fre&q. (Hz)
FREQFINAL	QUANT	1.00000E+000	Final Fre&q. (Hz)
PTSPERDEC	QUANT	1.00000E+001	Points/&decade
VAC	QUANT	2.50000E+001	AC &Voltage (mV rms)
AREA	QUANT	1.00000E-002	&Area (cm^2)
CONDIT	TWOPARAM	T	5.00000E+000	0.00000E+000	Conditionin&g	Time(s)	E(V)
DELAY	TWOPARAM	T	5.00000E+000	0.00000E+000	Init. De&lay	Time(s)	Stab.(mV/s)
SPEED	SELECTOR	1	&Optimize for:
ZGUESS	QUANT	1.00000E+007	E&stimated Z (ohms)
OCVCURVE	TABLE	19
	Pt	T	Vf	Vm	Ach	Over
	#	s	V vs. Ref.	V	V	bits
	0	0.258333	6.88709E-002	6.88709E-002	5.76266E-004	...........
	1	0.516667	6.88869E-002	6.97084E-002	5.76966E-004	...........
	2	0.775	6.89869E-002	7.05959E-002	5.71066E-004	...........
	3	1.03333	6.92762E-002	7.14666E-002	5.77532E-004	...........
	4	1.29167	6.98079E-002	7.23541E-002	5.75532E-004	...........
	5	1.55	7.05373E-002	7.31718E-002	5.72866E-004	...........
	6	1.80833	7.13769E-002	7.42356E-002	5.77099E-004	...........
	7	2.06667	7.22747E-002	7.55972E-002	5.75299E-004	...........
	8	2.325	7.32430E-002	7.68054E-002	5.69299E-004	...........
	9	2.58333	7.43037E-002	7.75719E-002	5.71332E-004	...........
	10	2.84167	7.53926E-002	7.72841E-002	5.72566E-004	...........
	11	3.1	7.63521E-002	7.82336E-002	5.72699E-004	...........
	12	3.35833	7.70885E-002	7.90576E-002	5.68699E-004	...........
	13	3.61667	7.76770E-002	7.92199E-002	5.69799E-004	...........
	14	3.875	7.82244E-002	7.95734E-002	5.69766E-004	...........
	15	4.13333	7.87378E-002	8.00454E-002	5.67232E-004	...........
	16	4.39167	7.91987E-002	8.07528E-002	5.69766E-004	...........
	17	4.65	7.96515E-002	8.16105E-002	5.69532E-004	...........
	18	4.90833	8.01708E-002	8.22369E-002	5.71966E-004	...........
EOC	QUANT	0.0801708	Open Circuit (V)
PSTATMODEL	IQUANT	4	Pstat Model
PSTATSECTION	LABEL	REF600-11020	Pstat Section
PSTATSERIALNO	LABEL	11020	Pstat Serial Number
CTRLMODE	IQUANT	1	Control Mode
IESTAB	IQUANT	0	I/E Stability
CASPEED	IQUANT	1	Control Amp Speed
CONVENTION	IQUANT	1	Current Convention
ICHRANGE	IQUANT	2	Ich Range
ICHRANGEMODE	TOGGLE	F	Ich Auto Range
ICHOFFSETENABLE	TOGGLE	T	Ich Offset Enable
ICHOFFSET	QUANT	0	Ich Offset (V)
ICHFILTER	IQUANT	3	Ich Filter
VCHRANGE	IQUANT	2	Vch Range
VCHRANGEMODE	TOGGLE	F	Vch Auto Range
VCHOFFSETENABLE	TOGGLE	T	Vch Offset Enable
VCHOFFSET	QUANT	0	Vch Offset (V)
VCHFILTER	IQUANT	3	Vch Filter
ACHRANGE	IQUANT	2	Ach Range
ACHOFFSETENABLE	TOGGLE	F	Ach Offset Enable
ACHOFFSET	QUANT	0	Ach Offset (V)
ACHFILTER	IQUANT	3	Ach Filter
IERANGELOWERLIMIT	IQUANT	1	I/E Range Lower Limit
IERANGEMODE	TOGGLE	F	I/E AutoRange
IERANGE	IQUANT	4	I/E Range
POSFEEDENABLE	TOGGLE	F	Positive Feedback IR Comp
POSFEEDRESISTANCE	QUANT	0	Positive Feedback Resistance (ohm)
ACHSELECT	IQUANT	0	Ach Select
CABLEID	IQUANT	14	Cable ID
DCCALDATE	LABEL	8/19/2019	DC Calibration Date
ACCALDATE	LABEL	8/19/2019	AC Calibration Date
THERMOSELECT	IQUANT	1	Thermo Select
FRAMEWORKVERSION	QUANT	6.33	Framework Version
INSTRUMENTVERSION	LABEL	3.50	Instrument Version
ZCURVE	TABLE
	Pt	Time	Freq	Zreal	Zimag	Zsig	Zmod	Zphz	Idc	Vdc	IERange
	#	s	Hz	ohm	ohm	V	ohm	°	A	V	#
	0	2	1000078	2331.056	-2215.423	1	3215.886	-43.54308	1.246508E-005	0.0817503	8
	1	4	794390.6	2770.144	-2092.543	1	3471.661	-37.06709	1.266409E-005	0.0808776	8
	2	6	630984.4	3220.57	-2035.587	1	3809.946	-32.29527	9.258591E-006	0.0817567	8
	3	7	501234.4	3589.867	-1879.918	1	4052.313	-27.63985	8.959347E-006	0.0816806	8
	4	9	398109.4	3835.183	-1728.163	1	4206.563	-24.2567	1.204042E-005	0.0811221	8
	5	10	316265.6	4102.195	-1532.071	1	4378.955	-20.47944	8.876736E-006	0.0815011	8
	6	12	251203.1	4290.365	-1374.874	1	4505.275	-17.76838	9.898638E-006	0.0814203	8
	7	13	199546.9	4440.298	-1226.781	1	4606.652	-15.44459	1.173559E-005	0.0809822	8
	8	15	158578.1	4527.229	-1138.469	1	4668.182	-14.11557	1.211368E-005	0.080942	8
	9	16	125953.1	4647.326	-1056.355	1	4765.871	-12.80596	1.133115E-006	0.0802786	7
	10	18	100078.1	4725.022	-1001.149	1	4829.921	-11.96304	9.551185E-007	0.0815055	7
	11	19	79453.13	4802.263	-998.061	1	4904.88	-11.74073	9.788404E-007	0.0815188	7
	12	20	63140.62	4877.695	-1022.488	1	4983.712	-11.83921	9.715972E-007	0.0815507	7
	13	22	50203.12	4957.007	-1074.578	1	5072.144	-12.2313	9.170133E-007	0.0815968	7
	14	23	39890.62	5039.972	-1164.448	1	5172.741	-13.00949	1.003433E-006	0.0814173	7
	15	24	31640.63	5133.152	-1279.662	1	5290.254	-13.99814	1.005136E-006	0.0814198	7
	16	26	25171.88	5241.202	-1434.417	1	5433.944	-15.30596	9.184041E-007	0.0816069	7
	17	27	20015.62	5355.256	-1623.288	1	5595.876	-16.86314	9.554825E-007	0.0814763	7
	18	28	15890.62	5491.405	-1857.589	1	5797.083	-18.68924	9.952723E-007	0.0814706	7
	19	30	12609.37	5650.616	-2151.808	1	6046.465	-20.84731	1.031773E-006	0.08142	7
	20	31	10078.13	5821.551	-2492.375	1	6332.645	-23.17718	9.480911E-007	0.0815958	7
	21	33	8015.625	6032.849	-2897.777	1	6692.711	-25.65651	9.201513E-007	0.0816116	7
	22	34	6328.125	6281.676	-3405.775	1	7145.541	-28.4655	9.418952E-007	0.0815239	7
	23	35	5015.625	6568.561	-3998.057	1	7689.633	-31.32744	9.404002E-007	0.0815492	7
	24	37	3984.375	6895.339	-4703.431	1	8346.733	-34.29858	9.575378E-007	0.0815325	7
	25	38	3170.956	7282.361	-5521.846	1	9139.123	-37.1712	9.549254E-007	0.0814839	7
	26	39	2527.573	7728.486	-6493.516	1	10094.32	-40.03716	9.426813E-007	0.0815402	7
	27	41	1976.103	8314.962	-7747.691	1	11365.09	-42.97738	1.029327E-006	0.0814103	7
	28	42	1577.524	8941.229	-9129.024	1	12778.29	-45.59543	9.409667E-007	0.0816247	7
	29	43	1265.625	9651.91	-10699.63	1	14409.76	-47.94706	8.81131E-008	0.0815279	6
	30	45	998.264	10577.3	-12698.92	1	16527	-50.20811	9.583164E-008	0.0815362	6
	31	46	796.875	11617.01	-14952.67	1	18935.08	-52.15568	9.744962E-008	0.0813662	6
	32	47	627.7902	12927.09	-17795.86	1	21995.5	-54.00497	9.111057E-008	0.0814486	6
	33	49	505.5147	14310.84	-20838.05	1	25278.93	-55.52009	1.045787E-007	0.0812905	6
	34	50	397.9953	16171.35	-24775.61	1	29586.2	-56.86702	9.582077E-008	0.0811071	6
	35	51	315.5048	18301.35	-29310.81	1	34555.21	-58.01979	9.625029E-008	0.0811134	6
	36	53	252.4038	20732.06	-34437.33	1	40196.37	-58.9511	9.623341E-008	0.0811087	6
	37	54	198.6229	23849.96	-40929.77	1	47371.58	-59.77045	9.578942E-008	0.081111	6
	38	55	158.3615	27352.14	-48165.08	1	55389.66	-60.40848	9.574529E-008	0.0811107	6
	39	57	125.558	31605.48	-56839.67	1	65035.79	-60.92392	9.586852E-008	0.0811133	6
	40	58	100.4464	36295.45	-66672.95	1	75912.06	-61.43699	9.576313E-008	0.0811089	6
	41	59	79.00281	42600.38	-78761.87	1	89544.54	-61.59212	9.577297E-008	0.0811051	6
	42	61	63.3446	49802.73	-91457.99	1	104138.7	-61.42985	9.551621E-008	0.0811066	6
	43	62	49.86702	56837.56	-109858.5	1	123690.7	-62.64428	9.545258E-008	0.0811006	6
	44	64	39.72458	66659.13	-128011	1	144326.9	-62.49266	9.641392E-009	0.0811111	5
	45	65	31.6723	76752.76	-150688.5	1	169109.5	-63.00811	9.928846E-009	0.0811124	5
	46	66	24.93351	89787.1	-178172	1	199516.9	-63.25487	9.705379E-009	0.0811121	5
	47	68	19.86229	104099	-209775.2	1	234184.2	-63.60751	9.889644E-009	0.0811149	5
	48	69	15.83615	118204.7	-245116.9	1	272129.8	-64.25487	1.013977E-008	0.0811125	5
	49	70	12.40079	138398.1	-296431.5	1	327147.8	-64.97305	9.526414E-009	0.0811104	5
	50	72	9.93114	161944.4	-348010.6	1	383845.5	-65.04539	9.760889E-009	0.081117	5
	51	73	7.944915	185311.1	-411524.5	1	451323.2	-65.75777	9.967129E-009	0.0811098	5
	52	75	6.317385	218472.8	-488262.2	1	534911.6	-65.89388	9.746068E-009	0.0811006	5
	53	77	5.008013	256656.5	-582022.6	1	636099.7	-66.2038	9.65089E-009	0.0811115	5
	54	79	3.945707	302632.1	-699610.4	1	762260.4	-66.60802	9.581302E-008	0.0811044	6
	55	82	3.158693	356310.6	-827407	1	900866	-66.70158	9.640201E-009	0.0811254	5
	56	86	2.504006	425155.5	-988654	1	1076194	-66.73062	9.461625E-009	0.0813984	5
	57	89	1.998082	506651.1	-1170054	1	1275038	-66.58666	9.579572E-009	0.0813685	5
	58	92	1.584686	611531.1	-1398418	1	1526285	-66.38014	9.68114E-010	0.0813521	4
	59	95	1.266892	735205.6	-1642469	1	1799509	-65.88565	1.0224E-009	0.0813883	4
	60	100	0.999041	900536.1	-1961125	1	2158003	-65.33571	9.923139E-010	0.0813817	4
