EXPLAIN
TAG	EISPOT
TITLE	LABEL	Potentiostatic EIS	Test &Identifier
DATE	LABEL	10/22/2019	Date
TIME	LABEL	9:58:06	Time
NOTES	NOTES	1	&Notes...
	
PSTAT	PSTAT	REF600-11020	Potentiostat
VDC	POTEN	0.00000E+000	T	DC &Voltage (V)
FREQINIT	QUANT	1.00000E+006	Initial Fre&q. (Hz)
FREQFINAL	QUANT	1.00000E+000	Final Fre&q. (Hz)
PTSPERDEC	QUANT	1.00000E+001	Points/&decade
VAC	QUANT	2.50000E+001	AC &Voltage (mV rms)
AREA	QUANT	1.00000E-002	&Area (cm^2)
CONDIT	TWOPARAM	T	5.00000E+000	0.00000E+000	Conditionin&g	Time(s)	E(V)
DELAY	TWOPARAM	T	5.00000E+000	0.00000E+000	Init. De&lay	Time(s)	Stab.(mV/s)
SPEED	SELECTOR	1	&Optimize for:
ZGUESS	QUANT	1.00000E+005	E&stimated Z (ohms)
OCVCURVE	TABLE	19
	Pt	T	Vf	Vm	Ach	Over
	#	s	V vs. Ref.	V	V	bits
	0	0.258333	2.79651E-003	2.79651E-003	6.20965E-004	...........
	1	0.516667	2.80407E-003	3.19237E-003	6.05598E-004	...........
	2	0.775	2.83771E-003	2.89739E-003	6.00799E-004	...........
	3	1.03333	2.88799E-003	2.49326E-003	6.01199E-004	...........
	4	1.29167	2.88836E-003	2.25719E-003	6.10532E-004	...........
	5	1.55	2.78121E-003	2.19594E-003	6.02432E-004	...........
	6	1.80833	2.59189E-003	2.13163E-003	6.14065E-004	...........
	7	2.06667	2.39602E-003	2.05837E-003	6.09165E-004	...........
	8	2.325	2.24356E-003	1.98284E-003	6.05232E-004	...........
	9	2.58333	2.13665E-003	1.89865E-003	6.08698E-004	...........
	10	2.84167	2.05503E-003	1.83171E-003	6.11932E-004	...........
	11	3.1	1.98119E-003	1.74256E-003	6.09832E-004	...........
	12	3.35833	1.90585E-003	1.60269E-003	6.12998E-004	...........
	13	3.61667	1.82330E-003	1.53996E-003	6.08498E-004	...........
	14	3.875	1.73194E-003	1.43771E-003	6.11832E-004	...........
	15	4.13333	1.63670E-003	1.38028E-003	6.12865E-004	...........
	16	4.39167	1.54583E-003	1.35698E-003	6.09598E-004	...........
	17	4.65	1.46727E-003	1.32094E-003	6.05898E-004	...........
	18	4.90833	1.40687E-003	1.35042E-003	6.09298E-004	...........
EOC	QUANT	0.0014069	Open Circuit (V)
PSTATMODEL	IQUANT	4	Pstat Model
PSTATSECTION	LABEL	REF600-11020	Pstat Section
PSTATSERIALNO	LABEL	11020	Pstat Serial Number
CTRLMODE	IQUANT	1	Control Mode
IESTAB	IQUANT	0	I/E Stability
CASPEED	IQUANT	1	Control Amp Speed
CONVENTION	IQUANT	1	Current Convention
ICHRANGE	IQUANT	2	Ich Range
ICHRANGEMODE	TOGGLE	F	Ich Auto Range
ICHOFFSETENABLE	TOGGLE	T	Ich Offset Enable
ICHOFFSET	QUANT	0	Ich Offset (V)
ICHFILTER	IQUANT	3	Ich Filter
VCHRANGE	IQUANT	2	Vch Range
VCHRANGEMODE	TOGGLE	F	Vch Auto Range
VCHOFFSETENABLE	TOGGLE	T	Vch Offset Enable
VCHOFFSET	QUANT	0	Vch Offset (V)
VCHFILTER	IQUANT	3	Vch Filter
ACHRANGE	IQUANT	2	Ach Range
ACHOFFSETENABLE	TOGGLE	F	Ach Offset Enable
ACHOFFSET	QUANT	0	Ach Offset (V)
ACHFILTER	IQUANT	3	Ach Filter
IERANGELOWERLIMIT	IQUANT	1	I/E Range Lower Limit
IERANGEMODE	TOGGLE	F	I/E AutoRange
IERANGE	IQUANT	4	I/E Range
POSFEEDENABLE	TOGGLE	F	Positive Feedback IR Comp
POSFEEDRESISTANCE	QUANT	0	Positive Feedback Resistance (ohm)
ACHSELECT	IQUANT	0	Ach Select
CABLEID	IQUANT	14	Cable ID
DCCALDATE	LABEL	8/19/2019	DC Calibration Date
ACCALDATE	LABEL	8/19/2019	AC Calibration Date
THERMOSELECT	IQUANT	1	Thermo Select
FRAMEWORKVERSION	QUANT	6.33	Framework Version
INSTRUMENTVERSION	LABEL	3.50	Instrument Version
ZCURVE	TABLE
	Pt	Time	Freq	Zreal	Zimag	Zsig	Zmod	Zphz	Idc	Vdc	IERange
	#	s	Hz	ohm	ohm	V	ohm	°	A	V	#
	0	2	1000078	2526.362	-1745.494	1	3070.708	-34.64106	6.117805E-006	0.0026126	8
	1	4	794390.6	2847.045	-1676.966	1	3304.221	-30.49893	2.763351E-006	0.0024569	8
	2	5	630984.4	3159.595	-1559.428	1	3523.473	-26.26878	-4.105658E-006	0.0037548	8
	3	7	501234.4	3432.596	-1429.045	1	3718.184	-22.60275	-2.861411E-007	0.0034946	8
	4	8	398109.4	3641.586	-1261.976	1	3854.054	-19.11354	1.368514E-006	0.0029924	8
	5	10	316265.6	3816.665	-1102.414	1	3972.688	-16.11095	1.389304E-006	0.0025829	8
	6	11	251203.1	3956.464	-967.857	1	4073.126	-13.74612	3.711812E-006	0.0023594	8
	7	13	199546.9	4042.848	-833.2401	1	4127.821	-11.64572	-3.019608E-006	0.0035028	8
	8	14	158578.1	4128.552	-733.3124	1	4193.171	-10.07182	1.041356E-006	0.0027878	8
	9	16	125953.1	4222.638	-598.7863	1	4264.881	-8.070951	6.620665E-007	0.0010729	7
	10	17	100078.1	4263.391	-530.2566	1	4296.239	-7.08972	3.955926E-008	0.0029008	7
	11	19	79453.13	4307.534	-487.4972	1	4335.032	-6.45687	-5.464006E-009	0.0030687	7
	12	20	63140.62	4348.289	-458.0445	1	4372.348	-6.013305	8.346214E-008	0.0028542	7
	13	21	50203.12	4386.793	-439.8612	1	4408.79	-5.725876	-5.681322E-008	0.0031972	7
	14	23	39890.62	4426.271	-429.9306	1	4447.102	-5.547826	-1.248998E-008	0.002993	7
	15	24	31640.63	4464.255	-433.6748	1	4485.271	-5.548521	8.907541E-008	0.0029671	7
	16	25	25171.88	4504.343	-447.061	1	4526.475	-5.668106	1.357505E-007	0.002822	7
	17	27	20015.62	4551.152	-467.0908	1	4575.058	-5.859826	-7.821616E-008	0.0031527	7
	18	28	15890.62	4594.436	-498.6489	1	4621.417	-6.19425	-3.797314E-008	0.0030632	7
	19	30	12609.37	4644.737	-539.4405	1	4675.957	-6.624662	-7.859278E-008	0.0031622	7
	20	31	10078.13	4694.099	-586.0063	1	4730.536	-7.11593	-1.770164E-008	0.002994	7
	21	32	8015.625	4744.827	-647.1973	1	4788.763	-7.767245	1.091945E-008	0.0029516	7
	22	34	6328.125	4801.91	-723.6883	1	4856.137	-8.570457	2.992539E-010	0.0030515	7
	23	35	5015.625	4857.318	-821.0893	1	4926.229	-9.59467	8.837845E-008	0.0029622	7
	24	36	3984.375	4918.003	-936.4561	1	5006.367	-10.78085	-3.308656E-008	0.0030514	7
	25	38	3170.956	4975.268	-1089.452	1	5093.151	-12.35131	4.259563E-008	0.0028866	7
	26	39	2527.573	5039.586	-1274.506	1	5198.25	-14.19247	-2.978923E-008	0.0030276	7
	27	40	1976.103	5115.287	-1525.9	1	5338.026	-16.60994	-1.505285E-008	0.0029845	7
	28	42	1577.524	5194.299	-1799.278	1	5497.103	-19.10582	-7.876307E-008	0.0031525	7
	29	43	1265.625	5278.023	-2155.79	1	5701.313	-22.21739	-7.721289E-008	0.0031494	7
	30	45	998.264	5384.017	-2614.718	1	5985.348	-25.90327	-1.514697E-008	0.0029904	7
	31	46	796.875	5502.939	-3153.363	1	6342.399	-29.81411	-1.514227E-008	0.0029843	7
	32	47	627.7902	5660.903	-3856.579	1	6849.747	-34.26526	-3.8663E-008	0.0030424	7
	33	49	505.5147	5830.364	-4641.919	1	7452.554	-38.5255	4.067301E-008	0.0028852	7
	34	50	397.9953	6064	-5708.66	1	8328.318	-43.27114	5.1101E-009	0.0030394	7
	35	51	315.5048	6352.924	-6982.82	1	9440.308	-47.70428	5.231892E-009	0.0030383	7
	36	53	252.4038	6707.279	-8476.886	1	10809.5	-51.64743	1.336377E-009	0.0029813	6
	37	54	198.6229	7193.219	-10436.79	1	12675.53	-55.42471	7.613313E-010	0.0029766	6
	38	55	158.3615	7788.995	-12692.96	1	14892.27	-58.46477	3.026193E-010	0.002976	6
	39	57	125.558	8568.552	-15485.76	1	17698.28	-61.04345	1.037227E-009	0.0029782	6
	40	58	100.4464	9551.18	-18714.15	1	21010.58	-62.96151	1.362116E-009	0.0029775	6
	41	60	79.00281	10856.74	-22924.21	1	25365.1	-64.6581	6.24392E-010	0.0029791	6
	42	61	63.3446	12317.59	-27637.4	1	30258.04	-65.97815	5.170231E-010	0.0029782	6
	43	62	49.86702	14519.68	-33256	1	36287.5	-66.41375	3.751283E-010	0.0029752	6
	44	64	39.72458	17044.36	-40070.62	1	43544.97	-66.95714	9.767658E-010	0.0029794	6
	45	65	31.6723	20113.03	-48095	1	52131.2	-67.30563	1.433071E-009	0.002976	6
	46	67	24.93351	24234.66	-57989.21	1	62849.56	-67.31914	1.024897E-009	0.0029752	6
	47	68	19.86229	29125.85	-69305.89	1	75177.27	-67.20538	9.172054E-010	0.0029823	6
	48	69	15.83615	35305.15	-81995.2	1	89272.98	-66.70446	7.575739E-010	0.002976	6
	49	71	12.40079	43837.11	-99027.4	1	108296.4	-66.12215	1.081312E-009	0.002978	5
	50	72	9.93114	53044.21	-116421.9	1	127936.5	-65.50501	5.689665E-011	0.0029755	5
	51	74	7.944915	64980.05	-136457	1	151138.7	-64.53648	3.257E-010	0.0029742	5
	52	75	6.317385	79718	-159425.8	1	178245.8	-63.43349	7.824334E-010	0.0029801	5
	53	78	5.008013	97625.9	-185750.1	1	209842.6	-62.27463	4.957844E-010	0.0029853	5
	54	80	3.945707	118938.4	-215968.1	1	246553.4	-61.15746	5.756742E-011	0.0029784	5
	55	83	3.158693	141834.9	-247411	1	285183	-60.17538	1.497894E-010	0.0029922	5
	56	86	2.504006	168698.5	-284173.3	1	330474.8	-59.30466	3.225842E-010	0.0029723	5
	57	89	1.998082	196254.4	-324969.5	1	379632.7	-58.87153	-6.620841E-011	0.0030151	5
	58	92	1.584686	227512.6	-374266.2	1	437992.2	-58.705	2.11764E-010	0.0029978	5
	59	96	1.266892	261749.1	-429258	1	502767.4	-58.62637	1.85433E-011	0.0030193	5
	60	100	0.999041	300841	-498925.5	1	582607.9	-58.91095	8.582809E-011	0.0029427	5
