EXPLAIN
TAG	EISPOT
TITLE	LABEL	Potentiostatic EIS	Test &Identifier
DATE	LABEL	11/12/2019	Date
TIME	LABEL	23:40:05	Time
NOTES	NOTES	3	&Notes...
	
	
	
PSTAT	PSTAT	REF600-11020	Potentiostat
VDC	POTEN	0.00000E+000	T	DC &Voltage (V)
FREQINIT	QUANT	1.00000E+006	Initial Fre&q. (Hz)
FREQFINAL	QUANT	1.00000E+000	Final Fre&q. (Hz)
PTSPERDEC	QUANT	1.00000E+001	Points/&decade
VAC	QUANT	2.50000E+001	AC &Voltage (mV rms)
AREA	QUANT	1.00000E-002	&Area (cm^2)
CONDIT	TWOPARAM	T	5.00000E+000	0.00000E+000	Conditionin&g	Time(s)	E(V)
DELAY	TWOPARAM	T	5.00000E+000	0.00000E+000	Init. De&lay	Time(s)	Stab.(mV/s)
SPEED	SELECTOR	1	&Optimize for:
ZGUESS	QUANT	1.00000E+005	E&stimated Z (ohms)
OCVCURVE	TABLE	19
	Pt	T	Vf	Vm	Ach	Over
	#	s	V vs. Ref.	V	V	bits
	0	0.258333	5.74736E-003	5.74736E-003	5.58766E-004	...........
	1	0.516667	5.74473E-003	5.60981E-003	5.52399E-004	...........
	2	0.775	5.72927E-003	5.51483E-003	5.55299E-004	...........
	3	1.03333	5.68894E-003	5.48399E-003	5.59866E-004	...........
	4	1.29167	5.62625E-003	5.45919E-003	5.58466E-004	...........
	5	1.55	5.55861E-003	5.39441E-003	5.55866E-004	...........
	6	1.80833	5.49858E-003	5.31225E-003	5.63232E-004	...........
	7	2.06667	5.44133E-003	5.13197E-003	5.55899E-004	...........
	8	2.325	5.36424E-003	4.67098E-003	5.54266E-004	...........
	9	2.58333	5.23864E-003	4.74850E-003	5.53233E-004	...........
	10	2.84167	5.07045E-003	4.86910E-003	5.58166E-004	...........
	11	3.1	4.91943E-003	4.89263E-003	5.59566E-004	...........
	12	3.35833	4.84197E-003	4.92118E-003	5.56866E-004	...........
	13	3.61667	4.83776E-003	4.97165E-003	5.64199E-004	...........
	14	3.875	4.87246E-003	5.02170E-003	5.57299E-004	...........
	15	4.13333	4.91924E-003	5.06453E-003	5.56633E-004	...........
	16	4.39167	4.96693E-003	5.07564E-003	5.60066E-004	...........
	17	4.65	5.01002E-003	5.07486E-003	5.59132E-004	...........
	18	4.90833	5.04532E-003	5.18499E-003	5.63966E-004	...........
EOC	QUANT	0.0050453	Open Circuit (V)
PSTATMODEL	IQUANT	4	Pstat Model
PSTATSECTION	LABEL	REF600-11020	Pstat Section
PSTATSERIALNO	LABEL	11020	Pstat Serial Number
CTRLMODE	IQUANT	1	Control Mode
IESTAB	IQUANT	0	I/E Stability
CASPEED	IQUANT	1	Control Amp Speed
CONVENTION	IQUANT	1	Current Convention
ICHRANGE	IQUANT	2	Ich Range
ICHRANGEMODE	TOGGLE	F	Ich Auto Range
ICHOFFSETENABLE	TOGGLE	T	Ich Offset Enable
ICHOFFSET	QUANT	0	Ich Offset (V)
ICHFILTER	IQUANT	3	Ich Filter
VCHRANGE	IQUANT	2	Vch Range
VCHRANGEMODE	TOGGLE	F	Vch Auto Range
VCHOFFSETENABLE	TOGGLE	T	Vch Offset Enable
VCHOFFSET	QUANT	0	Vch Offset (V)
VCHFILTER	IQUANT	3	Vch Filter
ACHRANGE	IQUANT	2	Ach Range
ACHOFFSETENABLE	TOGGLE	F	Ach Offset Enable
ACHOFFSET	QUANT	0	Ach Offset (V)
ACHFILTER	IQUANT	3	Ach Filter
IERANGELOWERLIMIT	IQUANT	1	I/E Range Lower Limit
IERANGEMODE	TOGGLE	F	I/E AutoRange
IERANGE	IQUANT	4	I/E Range
POSFEEDENABLE	TOGGLE	F	Positive Feedback IR Comp
POSFEEDRESISTANCE	QUANT	0	Positive Feedback Resistance (ohm)
ACHSELECT	IQUANT	0	Ach Select
CABLEID	IQUANT	14	Cable ID
DCCALDATE	LABEL	8/19/2019	DC Calibration Date
ACCALDATE	LABEL	8/19/2019	AC Calibration Date
THERMOSELECT	IQUANT	1	Thermo Select
FRAMEWORKVERSION	QUANT	6.33	Framework Version
INSTRUMENTVERSION	LABEL	3.50	Instrument Version
ZCURVE	TABLE
	Pt	Time	Freq	Zreal	Zimag	Zsig	Zmod	Zphz	Idc	Vdc	IERange
	#	s	Hz	ohm	ohm	V	ohm	°	A	V	#
	0	1	1000078	2179.06	-1717.061	1	2774.275	-38.2375	-2.451526E-006	0.0077989	8
	1	3	794390.6	2518.48	-1709.205	1	3043.703	-34.16338	-7.232103E-007	0.0072979	8
	2	4	630984.4	2857.977	-1641.83	1	3296.003	-29.87619	-2.859793E-007	0.007187	8
	3	5	501234.4	3155.976	-1534.487	1	3509.25	-25.92978	-3.550781E-006	0.0071729	8
	4	7	398109.4	3413.706	-1386.122	1	3684.389	-22.09942	6.794672E-006	0.0058678	8
	5	8	316265.6	3625.006	-1244.521	1	3832.688	-18.94814	-3.695336E-006	0.0070609	8
	6	10	251203.1	3791.802	-1085.857	1	3944.217	-15.9801	-1.266807E-006	0.0063424	8
	7	11	199546.9	3913.65	-946.2049	1	4026.408	-13.59161	-3.655082E-007	0.0069581	8
	8	12	158578.1	4024.298	-867.5227	1	4116.742	-12.16516	-2.010764E-007	0.0062946	8
	9	14	125953.1	4116.603	-683.4365	1	4172.949	-9.426244	-1.553127E-006	0.0095153	7
	10	15	100078.1	4172.127	-603.7957	1	4215.592	-8.234747	-2.778167E-007	0.0077718	7
	11	16	79453.13	4223.459	-547.9321	1	4258.854	-7.392002	-2.733474E-007	0.00571	7
	12	18	63140.62	4266.035	-507.3561	1	4296.099	-6.782285	-6.627005E-007	0.0063432	7
	13	19	50203.12	4305.611	-481.4295	1	4332.442	-6.379995	-5.787422E-007	0.0079722	7
	14	20	39890.62	4340.545	-468.0458	1	4365.708	-6.154487	-1.01134E-006	0.0079819	7
	15	22	31640.63	4379.049	-468.3757	1	4404.026	-6.10505	-2.761744E-007	0.0056952	7
	16	23	25171.88	4417.763	-481.5664	1	4443.932	-6.22107	5.797116E-008	0.00739	7
	17	25	20015.62	4449.582	-507.7723	1	4478.461	-6.510251	-5.77928E-007	0.007968	7
	18	26	15890.62	4491.738	-549.8572	1	4525.269	-6.979152	-5.786312E-007	0.0079722	7
	19	27	12609.37	4541.114	-606.3585	1	4581.417	-7.60551	1.00526E-006	0.0051491	7
	20	29	10078.13	4572.277	-675.9288	1	4621.969	-8.409244	-1.012523E-006	0.0079814	7
	21	30	8015.625	4627.57	-774.2271	1	4691.89	-9.498041	-6.641444E-007	0.00633	7
	22	31	6328.125	4676.087	-890.9945	1	4760.217	-10.78798	-9.594363E-007	0.0069558	7
	23	33	5015.625	4734.938	-1038.331	1	4847.45	-12.36869	-9.576579E-007	0.0069593	7
	24	34	3984.375	4811.073	-1236.041	1	4967.315	-14.40858	4.570302E-007	0.0049511	7
	25	35	3170.956	4882.446	-1440.314	1	5090.46	-16.43598	5.59588E-007	0.0066952	7
	26	37	2527.573	4956.312	-1709.794	1	5242.94	-19.03305	-6.64632E-007	0.0063302	7
	27	38	1976.103	5060.73	-2070.845	1	5468.033	-22.25432	-6.626365E-007	0.0063279	7
	28	40	1577.524	5179.557	-2508.48	1	5755.022	-25.84109	1.174621E-007	0.0052195	7
	29	41	1265.625	5288.777	-2957.639	1	6059.603	-29.2152	-6.621348E-007	0.0063317	7
	30	42	998.264	5445.033	-3593.912	1	6524.155	-33.42621	-1.011264E-006	0.0079796	7
	31	44	796.875	5623.26	-4341.939	1	7104.47	-37.67314	7.257403E-007	0.0048515	7
	32	45	627.7902	5839.544	-5292.539	1	7881.069	-42.18688	1.128766E-007	0.0052134	7
	33	47	505.5147	6080.614	-6346.051	1	8788.983	-46.22367	-5.745981E-007	0.0079598	7
	34	48	397.9953	6382.833	-7786.049	1	10067.93	-50.65585	4.052834E-009	0.006514	7
	35	49	315.5048	6741.125	-9499.126	1	11648.01	-54.6383	9.327011E-010	0.0064551	6
	36	51	252.4038	7147.283	-11518.01	1	13555.38	-58.17912	1.156715E-009	0.0064508	6
	37	52	198.6229	7674.502	-14183.9	1	16127.03	-61.58344	1.113938E-009	0.0064496	6
	38	53	158.3615	8286.704	-17292.64	1	19175.63	-64.39607	2.990405E-010	0.0064504	6
	39	55	125.558	9066.589	-21220.9	1	23076.61	-66.8655	7.040141E-010	0.0064468	6
	40	56	100.4464	10003.37	-25836.78	1	27705.71	-68.83481	-2.318722E-010	0.0064502	6
	41	58	79.00281	11375.9	-31979.98	1	33943.05	-70.41853	1.433258E-010	0.0064421	6
	42	59	63.3446	13178.43	-39076.57	1	41238.93	-71.3635	9.983302E-010	0.00645	6
	43	60	49.86702	14983.46	-48225.66	1	50499.69	-72.74026	4.431035E-010	0.0064392	6
	44	62	39.72458	17948.53	-58718.21	1	61400.14	-73.00307	9.755928E-010	0.0064375	6
	45	63	31.6723	21611.49	-71233.88	1	74440.06	-73.12284	9.617207E-010	0.0064473	6
	46	65	24.93351	26907.98	-87767.59	1	91799.72	-72.95539	8.486347E-010	0.0064389	6
	47	66	19.86229	33540.79	-106363.7	1	111526.8	-72.49783	3.289405E-010	0.0064481	5
	48	67	15.83615	42864.03	-127475.5	1	134489.1	-71.41462	-1.08894E-010	0.0064557	5
	49	69	12.40079	54568.1	-155998.1	1	165266.7	-70.72017	4.715447E-010	0.0064515	5
	50	70	9.93114	69997.51	-186136.9	1	198863.3	-69.39104	-7.594998E-011	0.0064587	5
	51	72	7.944915	89401.41	-220066.1	1	237532.5	-67.89065	7.438667E-010	0.0064587	5
	52	73	6.317385	114307.4	-259940.6	1	283963.5	-66.26278	1.187709E-010	0.0064711	5
	53	75	5.008013	146409	-304625.3	1	337982.5	-64.33013	1.736141E-010	0.0064463	5
	54	78	3.945707	186365.9	-354249	1	400280.7	-62.25172	4.579832E-010	0.0064531	5
	55	81	3.158693	231490.7	-404412.5	1	465980.1	-60.21265	1.411142E-012	0.0064437	5
	56	84	2.504006	285621.9	-459510.2	1	541044.8	-58.13578	4.553864E-010	0.0064489	5
	57	87	1.998082	344555.7	-515587.8	1	620120.5	-56.24609	6.222659E-011	0.0064908	5
	58	90	1.584686	409173.7	-576804.6	1	707196.4	-54.64887	2.267709E-010	0.0064412	5
	59	93	1.266892	479789.8	-642100.5	1	801555.6	-53.23221	9.731228E-011	0.0064899	5
	60	98	0.999041	557772	-717476.1	1	908780.3	-52.1382	1.17553E-011	0.0064134	5
