EXPLAIN
TAG	EISPOT
TITLE	LABEL	Potentiostatic EIS	Test &Identifier
DATE	LABEL	10/14/2019	Date
TIME	LABEL	11:25:32	Time
NOTES	NOTES	1	&Notes...
	
PSTAT	PSTAT	REF600-11020	Potentiostat
VDC	POTEN	0.00000E+000	T	DC &Voltage (V)
FREQINIT	QUANT	1.00000E+006	Initial Fre&q. (Hz)
FREQFINAL	QUANT	1.00000E+000	Final Fre&q. (Hz)
PTSPERDEC	QUANT	1.00000E+001	Points/&decade
VAC	QUANT	2.50000E+001	AC &Voltage (mV rms)
AREA	QUANT	1.00000E-002	&Area (cm^2)
CONDIT	TWOPARAM	T	5.00000E+000	0.00000E+000	Conditionin&g	Time(s)	E(V)
DELAY	TWOPARAM	T	5.00000E+000	0.00000E+000	Init. De&lay	Time(s)	Stab.(mV/s)
SPEED	SELECTOR	1	&Optimize for:
ZGUESS	QUANT	1.00000E+004	E&stimated Z (ohms)
OCVCURVE	TABLE	19
	Pt	T	Vf	Vm	Ach	Over
	#	s	V vs. Ref.	V	V	bits
	0	0.258333	2.25759E-003	2.25759E-003	5.41766E-004	...........
	1	0.516667	2.24324E-003	1.50644E-003	5.38599E-004	...........
	2	0.775	2.15592E-003	8.36115E-004	5.43866E-004	...........
	3	1.03333	1.91237E-003	2.35581E-004	5.36933E-004	...........
	4	1.29167	1.48588E-003	-3.10356E-004	5.31033E-004	...........
	5	1.55	9.35551E-004	-8.13511E-004	5.39499E-004	...........
	6	1.80833	3.48077E-004	-1.28047E-003	5.39499E-004	...........
	7	2.06667	-2.17799E-004	-1.70567E-003	5.34266E-004	...........
	8	2.325	-7.39304E-004	-2.09776E-003	5.35433E-004	...........
	9	2.58333	-1.21444E-003	-2.46242E-003	5.44933E-004	...........
	10	2.84167	-1.64852E-003	-2.80965E-003	5.42799E-004	...........
	11	3.1	-2.04826E-003	-3.13166E-003	5.35166E-004	...........
	12	3.35833	-2.41969E-003	-3.43907E-003	5.33933E-004	...........
	13	3.61667	-2.76739E-003	-3.73069E-003	5.37333E-004	...........
	14	3.875	-3.09461E-003	-4.00386E-003	5.38866E-004	...........
	15	4.13333	-3.40359E-003	-4.26463E-003	5.32900E-004	...........
	16	4.39167	-3.69586E-003	-4.51439E-003	5.36433E-004	...........
	17	4.65	-3.97285E-003	-4.75372E-003	5.40499E-004	...........
	18	4.90833	-4.23608E-003	-4.97684E-003	5.32866E-004	...........
EOC	QUANT	-0.0042361	Open Circuit (V)
PSTATMODEL	IQUANT	4	Pstat Model
PSTATSECTION	LABEL	REF600-11020	Pstat Section
PSTATSERIALNO	LABEL	11020	Pstat Serial Number
CTRLMODE	IQUANT	1	Control Mode
IESTAB	IQUANT	0	I/E Stability
CASPEED	IQUANT	1	Control Amp Speed
CONVENTION	IQUANT	1	Current Convention
ICHRANGE	IQUANT	2	Ich Range
ICHRANGEMODE	TOGGLE	F	Ich Auto Range
ICHOFFSETENABLE	TOGGLE	T	Ich Offset Enable
ICHOFFSET	QUANT	0	Ich Offset (V)
ICHFILTER	IQUANT	3	Ich Filter
VCHRANGE	IQUANT	2	Vch Range
VCHRANGEMODE	TOGGLE	F	Vch Auto Range
VCHOFFSETENABLE	TOGGLE	T	Vch Offset Enable
VCHOFFSET	QUANT	0	Vch Offset (V)
VCHFILTER	IQUANT	3	Vch Filter
ACHRANGE	IQUANT	2	Ach Range
ACHOFFSETENABLE	TOGGLE	F	Ach Offset Enable
ACHOFFSET	QUANT	0	Ach Offset (V)
ACHFILTER	IQUANT	3	Ach Filter
IERANGELOWERLIMIT	IQUANT	1	I/E Range Lower Limit
IERANGEMODE	TOGGLE	F	I/E AutoRange
IERANGE	IQUANT	5	I/E Range
POSFEEDENABLE	TOGGLE	F	Positive Feedback IR Comp
POSFEEDRESISTANCE	QUANT	0	Positive Feedback Resistance (ohm)
ACHSELECT	IQUANT	0	Ach Select
CABLEID	IQUANT	14	Cable ID
DCCALDATE	LABEL	8/19/2019	DC Calibration Date
ACCALDATE	LABEL	8/19/2019	AC Calibration Date
THERMOSELECT	IQUANT	1	Thermo Select
FRAMEWORKVERSION	QUANT	6.33	Framework Version
INSTRUMENTVERSION	LABEL	3.50	Instrument Version
ZCURVE	TABLE
	Pt	Time	Freq	Zreal	Zimag	Zsig	Zmod	Zphz	Idc	Vdc	IERange
	#	s	Hz	ohm	ohm	V	ohm	°	A	V	#
	0	1	1000078	2756.209	-1862.409	1	3326.448	-34.04744	-5.732445E-006	-0.0011211	8
	1	3	794390.6	3091.886	-1786.145	1	3570.724	-30.0145	3.129782E-006	-0.0023456	8
	2	4	630984.4	3430.029	-1692.625	1	3824.929	-26.26508	-9.495958E-009	-0.0025135	8
	3	5	501234.4	3717.066	-1561.711	1	4031.813	-22.78952	-8.687164E-007	-0.0022439	8
	4	7	398109.4	3942.592	-1407.957	1	4186.451	-19.65238	-2.221195E-006	-0.0021858	8
	5	8	316265.6	4128.305	-1218.355	1	4304.334	-16.44251	9.759624E-007	-0.0027208	8
	6	10	251203.1	4268.01	-1108.065	1	4409.503	-14.55387	-2.668496E-007	-0.0027119	8
	7	11	199546.9	4368.264	-989.995	1	4479.042	-12.76943	-1.220751E-006	-0.002482	8
	8	12	158578.1	4484.402	-887.9203	1	4571.462	-11.19981	-7.466203E-007	-0.0024012	8
	9	14	125953.1	4605.817	-787.9612	1	4672.733	-9.70815	4.713691E-008	-0.002657	7
	10	15	100078.1	4648.827	-739.0954	1	4707.213	-9.033584	-5.672569E-008	-0.0026335	7
	11	17	79453.13	4717.363	-722.233	1	4772.33	-8.704452	-9.35051E-009	-0.0027332	7
	12	18	63140.62	4782.604	-720.4708	1	4836.567	-8.566852	8.025076E-008	-0.002904	7
	13	19	50203.12	4849.657	-735.3285	1	4905.087	-8.621793	-3.324907E-008	-0.0027348	7
	14	21	39890.62	4919.758	-766.6995	1	4979.141	-8.857777	-4.340982E-008	-0.0026882	7
	15	22	31640.63	4996.395	-812.8816	1	5062.088	-9.240695	-3.294436E-008	-0.0027328	7
	16	23	25171.88	5079.22	-876.2386	1	5154.248	-9.788	-3.329284E-008	-0.0027365	7
	17	25	20015.62	5160.883	-972.433	1	5251.699	-10.67078	-6.194673E-008	-0.0026677	7
	18	26	15890.62	5269.823	-1056.892	1	5374.761	-11.34054	-1.080383E-008	-0.0027336	7
	19	27	12609.37	5382.398	-1176.205	1	5509.417	-12.32695	7.011189E-008	-0.0028471	7
	20	29	10078.13	5504.866	-1314.156	1	5659.555	-13.42671	1.411153E-007	-0.0029488	7
	21	30	8015.625	5648.296	-1470.807	1	5836.654	-14.59559	5.609746E-008	-0.0028058	7
	22	31	6328.125	5805.249	-1678.225	1	6042.959	-16.12393	4.885806E-009	-0.0027975	7
	23	33	5015.625	5989.091	-1910.513	1	6286.436	-17.69262	-7.244255E-008	-0.0026611	7
	24	34	3984.375	6182.66	-2172.05	1	6553.098	-19.35704	-2.60592E-008	-0.0026911	7
	25	35	3170.956	6428.683	-2472.399	1	6887.722	-21.03618	4.033025E-009	-0.0028026	7
	26	37	2527.573	6692.751	-2817.234	1	7261.523	-22.82808	4.462293E-008	-0.0028954	7
	27	38	1976.103	7022.483	-3242.371	1	7734.872	-24.78338	9.643358E-008	-0.00295	7
	28	40	1577.524	7382.19	-3736.098	1	8273.763	-26.8438	5.37602E-009	-0.0027955	7
	29	41	1265.625	7750.821	-4173.937	1	8803.236	-28.30315	7.007874E-008	-0.002858	7
	30	42	998.264	8194.746	-4755.181	1	9474.472	-30.12539	7.110283E-008	-0.0028584	7
	31	44	796.875	8647.479	-5380.025	1	10184.48	-31.88779	2.124747E-008	-0.003069	6
	32	45	627.7902	9129.681	-6163.157	1	11015.24	-34.02203	-1.16346E-009	-0.002664	6
	33	46	505.5147	9567.51	-7006.916	1	11858.93	-36.21775	-2.41523E-010	-0.0028134	6
	34	48	397.9953	10040.5	-8161.54	1	12939.18	-39.10635	1.214488E-009	-0.0027909	6
	35	49	315.5048	10494.47	-9571.02	1	14203.46	-42.36499	1.351242E-009	-0.0027979	6
	36	51	252.4038	10942.28	-11276.53	1	15712.85	-45.86187	3.443134E-010	-0.002797	6
	37	52	198.6229	11459.35	-13594.18	1	17779.72	-49.87044	6.494232E-010	-0.002797	6
	38	53	158.3615	12011.58	-16355.25	1	20292.17	-53.70578	1.038192E-009	-0.0028059	6
	39	55	125.558	12691.5	-19902.47	1	23604.71	-57.47497	7.479416E-010	-0.0027995	6
	40	56	100.4464	13484.33	-24105.51	1	27620.7	-60.77788	1.483155E-010	-0.0028019	6
	41	57	79.00281	14533.86	-29794.05	1	33149.94	-63.99638	6.360966E-010	-0.0028016	6
	42	59	63.3446	15869.52	-36459.07	1	39763.12	-66.47798	9.545761E-010	-0.0028016	6
	43	60	49.86702	17615.35	-44498.43	1	47858.24	-68.40314	1.038101E-009	-0.0028034	6
	44	62	39.72458	20028.79	-54547.89	1	58108.73	-69.83788	9.244137E-010	-0.0027982	6
	45	63	31.6723	22918.04	-66459.34	1	70299.94	-70.9736	2.309125E-010	-0.0028001	6
	46	64	24.93351	26958.29	-81928.66	1	86249.95	-71.78642	4.693986E-010	-0.0027997	6
	47	66	19.86229	31939.66	-99593.1	1	104589.4	-72.21888	6.723299E-010	-0.0027925	6
	48	67	15.83615	38342.94	-121630.9	1	127531.4	-72.50305	-8.684518E-010	-0.0027956	5
	49	68	12.40079	47711.43	-148885.8	1	156343.7	-72.2316	-5.263568E-010	-0.0027938	5
	50	70	9.93114	57621.48	-178279	1	187359.6	-72.08867	2.944545E-010	-0.0027972	5
	51	72	7.944915	70617.22	-213612.2	1	224982.2	-71.70683	-3.714008E-011	-0.0027953	5
	52	73	6.317385	87285.41	-256875.1	1	271299.8	-71.23239	1.361769E-010	-0.0028052	5
	53	75	5.008013	108534.3	-308732.8	1	327254.7	-70.63099	1.149635E-010	-0.0027907	5
	54	78	3.945707	135769.9	-371292.8	1	395337.6	-69.91415	1.025894E-010	-0.0027939	5
	55	80	3.158693	167368.5	-439877.1	1	470642.2	-69.16872	2.197562E-010	-0.0027919	5
	56	84	2.504006	207217.9	-522977.2	1	562533.9	-68.38518	6.887024E-011	-0.0027914	5
	57	87	1.998082	253847.8	-615745.8	1	666019.2	-67.59557	2.174931E-010	-0.0028362	5
	58	90	1.584686	309418.4	-727858.3	1	790896.6	-66.96927	1.213325E-010	-0.0028065	5
	59	93	1.266892	376832.3	-853338.8	1	932839.6	-66.17387	1.712531E-010	-0.0028393	5
	60	98	0.999041	460359	-1009172	1	1109215	-65.47871	1.028277E-010	-0.0027576	4
