EXPLAIN
TAG	EISPOT
TITLE	LABEL	Potentiostatic EIS	Test &Identifier
DATE	LABEL	11/12/2019	Date
TIME	LABEL	21:08:00	Time
NOTES	NOTES	3	&Notes...
	
	
	
PSTAT	PSTAT	REF600-11020	Potentiostat
VDC	POTEN	0.00000E+000	T	DC &Voltage (V)
FREQINIT	QUANT	1.00000E+006	Initial Fre&q. (Hz)
FREQFINAL	QUANT	1.00000E+000	Final Fre&q. (Hz)
PTSPERDEC	QUANT	1.00000E+001	Points/&decade
VAC	QUANT	2.50000E+001	AC &Voltage (mV rms)
AREA	QUANT	1.00000E-002	&Area (cm^2)
CONDIT	TWOPARAM	T	5.00000E+000	0.00000E+000	Conditionin&g	Time(s)	E(V)
DELAY	TWOPARAM	T	5.00000E+000	0.00000E+000	Init. De&lay	Time(s)	Stab.(mV/s)
SPEED	SELECTOR	1	&Optimize for:
ZGUESS	QUANT	1.00000E+005	E&stimated Z (ohms)
OCVCURVE	TABLE	19
	Pt	T	Vf	Vm	Ach	Over
	#	s	V vs. Ref.	V	V	bits
	0	0.258333	4.31674E-003	4.31674E-003	5.41933E-004	...........
	1	0.516667	4.32064E-003	4.52086E-003	5.47199E-004	...........
	2	0.775	4.34176E-003	4.56651E-003	5.41299E-004	...........
	3	1.03333	4.38978E-003	4.48764E-003	5.37133E-004	...........
	4	1.29167	4.44847E-003	4.47344E-003	5.37166E-004	...........
	5	1.55	4.48868E-003	4.50973E-003	5.38299E-004	...........
	6	1.80833	4.50235E-003	4.51117E-003	5.41199E-004	...........
	7	2.06667	4.50202E-003	4.43852E-003	5.43766E-004	...........
	8	2.325	4.49610E-003	4.46181E-003	5.41566E-004	...........
	9	2.58333	4.48552E-003	4.48718E-003	5.40933E-004	...........
	10	2.84167	4.47573E-003	4.49864E-003	5.47666E-004	...........
	11	3.1	4.47441E-003	4.51578E-003	5.43899E-004	...........
	12	3.35833	4.48266E-003	4.52325E-003	5.47199E-004	...........
	13	3.61667	4.49613E-003	4.54402E-003	5.40466E-004	...........
	14	3.875	4.51100E-003	4.55646E-003	5.44466E-004	...........
	15	4.13333	4.52594E-003	4.57127E-003	5.46833E-004	...........
	16	4.39167	4.54016E-003	4.55235E-003	5.49999E-004	...........
	17	4.65	4.55190E-003	4.58346E-003	5.49866E-004	...........
	18	4.90833	4.56093E-003	4.60588E-003	5.43433E-004	...........
EOC	QUANT	0.0045609	Open Circuit (V)
PSTATMODEL	IQUANT	4	Pstat Model
PSTATSECTION	LABEL	REF600-11020	Pstat Section
PSTATSERIALNO	LABEL	11020	Pstat Serial Number
CTRLMODE	IQUANT	1	Control Mode
IESTAB	IQUANT	0	I/E Stability
CASPEED	IQUANT	1	Control Amp Speed
CONVENTION	IQUANT	1	Current Convention
ICHRANGE	IQUANT	2	Ich Range
ICHRANGEMODE	TOGGLE	F	Ich Auto Range
ICHOFFSETENABLE	TOGGLE	T	Ich Offset Enable
ICHOFFSET	QUANT	0	Ich Offset (V)
ICHFILTER	IQUANT	3	Ich Filter
VCHRANGE	IQUANT	2	Vch Range
VCHRANGEMODE	TOGGLE	F	Vch Auto Range
VCHOFFSETENABLE	TOGGLE	T	Vch Offset Enable
VCHOFFSET	QUANT	0	Vch Offset (V)
VCHFILTER	IQUANT	3	Vch Filter
ACHRANGE	IQUANT	2	Ach Range
ACHOFFSETENABLE	TOGGLE	F	Ach Offset Enable
ACHOFFSET	QUANT	0	Ach Offset (V)
ACHFILTER	IQUANT	3	Ach Filter
IERANGELOWERLIMIT	IQUANT	1	I/E Range Lower Limit
IERANGEMODE	TOGGLE	F	I/E AutoRange
IERANGE	IQUANT	4	I/E Range
POSFEEDENABLE	TOGGLE	F	Positive Feedback IR Comp
POSFEEDRESISTANCE	QUANT	0	Positive Feedback Resistance (ohm)
ACHSELECT	IQUANT	0	Ach Select
CABLEID	IQUANT	14	Cable ID
DCCALDATE	LABEL	8/19/2019	DC Calibration Date
ACCALDATE	LABEL	8/19/2019	AC Calibration Date
THERMOSELECT	IQUANT	1	Thermo Select
FRAMEWORKVERSION	QUANT	6.33	Framework Version
INSTRUMENTVERSION	LABEL	3.50	Instrument Version
ZCURVE	TABLE
	Pt	Time	Freq	Zreal	Zimag	Zsig	Zmod	Zphz	Idc	Vdc	IERange
	#	s	Hz	ohm	ohm	V	ohm	°	A	V	#
	0	1	1000078	1593.566	-603.4437	1	1703.995	-20.74043	-7.881711E-006	0.0070072	8
	1	2	794390.6	1684.196	-530.1244	1	1765.658	-17.47213	5.095341E-006	0.0067111	8
	2	4	630984.4	1756.495	-464.3508	1	1816.837	-14.80807	-3.773628E-006	0.0061825	8
	3	5	501234.4	1808.844	-401.8192	1	1852.937	-12.52439	2.724311E-007	0.0059113	8
	4	6	398109.4	1849.851	-346.9839	1	1882.112	-10.62375	-1.336868E-007	0.0058201	8
	5	8	316265.6	1885.501	-304.015	1	1909.853	-9.159444	-1.926923E-006	0.0062296	8
	6	9	251203.1	1909.254	-267.9893	1	1927.97	-7.990028	-1.80265E-006	0.0062146	8
	7	10	199546.9	1931.995	-237.3888	1	1946.524	-7.004959	-2.121516E-006	0.0064931	8
	8	12	158578.1	1957.352	-220.6501	1	1969.749	-6.431737	5.060728E-006	0.005428	8
	9	13	125953.1	1979.967	-186.4785	1	1988.729	-5.380394	-6.437739E-007	0.0066569	7
	10	14	100078.1	1993.547	-171.1336	1	2000.879	-4.906458	4.663686E-007	0.0061189	7
	11	16	79453.13	2010.353	-172.8716	1	2017.771	-4.914812	7.407029E-007	0.0054603	7
	12	17	63140.62	2027.743	-177.8728	1	2035.53	-5.013131	7.704273E-007	0.0049502	7
	13	18	50203.12	2045.778	-185.2726	1	2054.15	-5.174783	-7.833548E-007	0.0072008	7
	14	20	39890.62	2065.373	-196.9171	1	2074.739	-5.446243	3.120117E-007	0.006334	7
	15	21	31640.63	2085.848	-210.9304	1	2096.486	-5.774378	-2.340487E-007	0.0054114	7
	16	22	25171.88	2106.739	-228.6718	1	2119.113	-6.194804	-5.381026E-007	0.005915	7
	17	24	20015.62	2128.71	-252.0202	1	2143.577	-6.751878	-4.266249E-007	0.0071448	7
	18	25	15890.62	2149.324	-281.8531	1	2167.725	-7.470892	-8.875704E-007	0.0068188	7
	19	26	12609.37	2172.569	-319.2492	1	2195.9	-8.359529	-8.860468E-007	0.00708	7
	20	28	10078.13	2197.654	-364.3809	1	2227.657	-9.414252	-8.870485E-007	0.0070787	7
	21	29	8015.625	2222.716	-421.9728	1	2262.416	-10.74943	4.668329E-007	0.0060995	7
	22	30	6328.125	2251.308	-495.3539	1	2305.16	-12.40903	6.175534E-007	0.0057996	7
	23	32	5015.625	2281.625	-584.7711	1	2355.37	-14.37525	-7.699388E-007	0.0064098	7
	24	33	3984.375	2315.217	-694.2291	1	2417.061	-16.69162	-5.403199E-007	0.0059105	7
	25	34	3170.956	2351.88	-829.3831	1	2493.836	-19.42504	7.905145E-007	0.005157	7
	26	36	2527.573	2391.917	-992.825	1	2589.782	-22.54212	-4.307393E-007	0.0071464	7
	27	37	1976.103	2441.669	-1215.872	1	2727.654	-26.47182	8.320274E-008	0.0066565	7
	28	38	1577.524	2494.999	-1466.762	1	2894.203	-30.45046	-7.8996E-007	0.0071975	7
	29	40	1265.625	2554.49	-1775.1	1	3110.691	-34.7952	5.436311E-007	0.0047366	7
	30	41	998.264	2631.853	-2177.304	1	3415.743	-39.60059	3.210499E-007	0.0063293	7
	31	43	796.875	2722.96	-2653.149	1	3801.804	-44.25604	3.177144E-007	0.0063274	7
	32	44	627.7902	2838.555	-3275.461	1	4334.287	-49.08739	6.775848E-008	0.0050396	7
	33	45	505.5147	2977.912	-3966.865	1	4960.24	-53.10457	4.698414E-007	0.0061037	7
	34	47	397.9953	3166.434	-4905.93	1	5839.046	-57.16059	5.890892E-009	0.0060213	7
	35	48	315.5048	3402.403	-6028.873	1	6922.691	-60.56173	7.667541E-009	0.0060209	7
	36	49	252.4038	3693.818	-7346.02	1	8222.427	-63.30526	5.633138E-009	0.0060227	7
	37	51	198.6229	4099.328	-9076.814	1	9959.57	-65.69482	5.405153E-009	0.0060229	7
	38	52	158.3615	4600.882	-11073.53	1	11991.29	-67.43786	1.425039E-009	0.0059548	6
	39	54	125.558	5266.371	-13554.39	1	14541.53	-68.76704	6.146111E-010	0.005959	6
	40	55	100.4464	6102.992	-16425.54	1	17522.7	-69.6172	8.267906E-010	0.0059569	6
	41	56	79.00281	7237.689	-20153.21	1	21413.45	-70.24509	7.416106E-010	0.0059534	6
	42	58	63.3446	8742.98	-24212.72	1	25742.87	-70.14584	3.884186E-011	0.0059526	6
	43	59	49.86702	10528.42	-29650.95	1	31464.69	-70.45114	1.446289E-010	0.0059497	6
	44	61	39.72458	12888.64	-35524.7	1	37790.49	-70.05882	1.356501E-009	0.005954	6
	45	62	31.6723	15844.69	-42496.63	1	45354.36	-69.55225	-4.220719E-010	0.0059538	6
	46	63	24.93351	19720.19	-51255.61	1	54918.34	-68.95617	8.189325E-010	0.0059548	6
	47	65	19.86229	24294.65	-60968.25	1	65630.46	-68.27368	3.133974E-010	0.005964	6
	48	66	15.83615	30058.51	-72135.13	1	78147.23	-67.37864	-2.138377E-010	0.0059547	6
	49	68	12.40079	37517.97	-86290.42	1	94093.76	-66.50121	-5.807728E-010	0.0059616	6
	50	69	9.93114	45640.92	-100996.6	1	110830.6	-65.68153	3.876397E-010	0.0059541	5
	51	71	7.944915	55697.66	-118119.3	1	130592.5	-64.75438	-6.2488E-010	0.0059615	5
	52	72	6.317385	68120.94	-138175.1	1	154054.6	-63.7565	6.979654E-010	0.0059447	5
	53	74	5.008013	83332.59	-161424.5	1	181665.1	-62.69574	4.683876E-010	0.0059704	5
	54	77	3.945707	101961.4	-188689.4	1	214475.7	-61.61471	-2.215069E-010	0.0059573	5
	55	80	3.158693	122281.7	-217080.3	1	249151.9	-60.60736	2.929716E-010	0.0059769	5
	56	83	2.504006	147068.4	-251103.3	1	291001.7	-59.64297	-4.126488E-010	0.0059515	5
	57	86	1.998082	174400.1	-287732.1	1	336459.7	-58.77912	-1.39187E-010	0.0059307	5
	58	89	1.584686	206782.6	-329278.3	1	388822.9	-57.8717	1.267797E-011	0.0060049	5
	59	92	1.266892	241551.7	-377169.6	1	447888.5	-57.36317	-2.055182E-010	0.0059273	5
	60	97	0.999041	283934.3	-434063.2	1	518680.6	-56.81005	2.881495E-010	0.005998	5
