EXPLAIN
TAG	EISPOT
TITLE	LABEL	Potentiostatic EIS	Test &Identifier
DATE	LABEL	9/22/2019	Date
TIME	LABEL	10:28:43	Time
NOTES	NOTES	1	&Notes...
	
PSTAT	PSTAT	REF600-11020	Potentiostat
VDC	POTEN	0.00000E+000	T	DC &Voltage (V)
FREQINIT	QUANT	1.00000E+006	Initial Fre&q. (Hz)
FREQFINAL	QUANT	1.00000E+000	Final Fre&q. (Hz)
PTSPERDEC	QUANT	1.00000E+001	Points/&decade
VAC	QUANT	2.50000E+001	AC &Voltage (mV rms)
AREA	QUANT	1.00000E-002	&Area (cm^2)
CONDIT	TWOPARAM	T	5.00000E+000	0.00000E+000	Conditionin&g	Time(s)	E(V)
DELAY	TWOPARAM	T	5.00000E+000	0.00000E+000	Init. De&lay	Time(s)	Stab.(mV/s)
SPEED	SELECTOR	1	&Optimize for:
ZGUESS	QUANT	1.00000E+004	E&stimated Z (ohms)
OCVCURVE	TABLE	19
	Pt	T	Vf	Vm	Ach	Over
	#	s	V vs. Ref.	V	V	bits
	0	0.258333	3.54707E-003	3.54707E-003	5.70266E-004	...........
	1	0.516667	3.54150E-003	3.25538E-003	5.72099E-004	...........
	2	0.775	3.50748E-003	2.98907E-003	5.71366E-004	...........
	3	1.03333	3.41205E-003	2.74291E-003	5.70132E-004	...........
	4	1.29167	3.24332E-003	2.50420E-003	5.67766E-004	...........
	5	1.55	3.02171E-003	2.27110E-003	5.65532E-004	...........
	6	1.80833	2.77845E-003	2.06012E-003	5.65166E-004	...........
	7	2.06667	2.53590E-003	1.86887E-003	5.66499E-004	...........
	8	2.325	2.30549E-003	1.69153E-003	5.65366E-004	...........
	9	2.58333	2.09225E-003	1.55231E-003	5.66032E-004	...........
	10	2.84167	1.89822E-003	1.39277E-003	5.63732E-004	...........
	11	3.1	1.72223E-003	1.23213E-003	5.64432E-004	...........
	12	3.35833	1.55927E-003	1.09756E-003	5.64666E-004	...........
	13	3.61667	1.40439E-003	9.77724E-004	5.65666E-004	...........
	14	3.875	1.25706E-003	8.58068E-004	5.71432E-004	...........
	15	4.13333	1.11857E-003	7.13586E-004	5.69632E-004	...........
	16	4.39167	9.86668E-004	5.74084E-004	5.67399E-004	...........
	17	4.65	8.56222E-004	4.54503E-004	5.66199E-004	...........
	18	4.90833	7.24894E-004	3.39585E-004	5.65866E-004	...........
EOC	QUANT	0.0007249	Open Circuit (V)
PSTATMODEL	IQUANT	4	Pstat Model
PSTATSECTION	LABEL	REF600-11020	Pstat Section
PSTATSERIALNO	LABEL	11020	Pstat Serial Number
CTRLMODE	IQUANT	1	Control Mode
IESTAB	IQUANT	0	I/E Stability
CASPEED	IQUANT	1	Control Amp Speed
CONVENTION	IQUANT	1	Current Convention
ICHRANGE	IQUANT	2	Ich Range
ICHRANGEMODE	TOGGLE	F	Ich Auto Range
ICHOFFSETENABLE	TOGGLE	T	Ich Offset Enable
ICHOFFSET	QUANT	0	Ich Offset (V)
ICHFILTER	IQUANT	3	Ich Filter
VCHRANGE	IQUANT	2	Vch Range
VCHRANGEMODE	TOGGLE	F	Vch Auto Range
VCHOFFSETENABLE	TOGGLE	T	Vch Offset Enable
VCHOFFSET	QUANT	0	Vch Offset (V)
VCHFILTER	IQUANT	3	Vch Filter
ACHRANGE	IQUANT	2	Ach Range
ACHOFFSETENABLE	TOGGLE	F	Ach Offset Enable
ACHOFFSET	QUANT	0	Ach Offset (V)
ACHFILTER	IQUANT	3	Ach Filter
IERANGELOWERLIMIT	IQUANT	1	I/E Range Lower Limit
IERANGEMODE	TOGGLE	F	I/E AutoRange
IERANGE	IQUANT	5	I/E Range
POSFEEDENABLE	TOGGLE	F	Positive Feedback IR Comp
POSFEEDRESISTANCE	QUANT	0	Positive Feedback Resistance (ohm)
ACHSELECT	IQUANT	0	Ach Select
CABLEID	IQUANT	14	Cable ID
DCCALDATE	LABEL	8/19/2019	DC Calibration Date
ACCALDATE	LABEL	8/19/2019	AC Calibration Date
THERMOSELECT	IQUANT	1	Thermo Select
FRAMEWORKVERSION	QUANT	6.33	Framework Version
INSTRUMENTVERSION	LABEL	3.50	Instrument Version
ZCURVE	TABLE
	Pt	Time	Freq	Zreal	Zimag	Zsig	Zmod	Zphz	Idc	Vdc	IERange
	#	s	Hz	ohm	ohm	V	ohm	°	A	V	#
	0	1	1000078	2370.99	-2046.151	1	3131.825	-40.79402	6.634647E-006	0.001826	8
	1	3	794390.6	2789.982	-2056.637	1	3466.086	-36.39581	-2.703852E-006	0.0026505	8
	2	4	630984.4	3208.611	-1995.246	1	3778.385	-31.87505	-5.459218E-009	0.0026938	8
	3	6	501234.4	3599.434	-1852.671	1	4048.248	-27.23541	-3.045554E-006	0.0029796	8
	4	7	398109.4	3897.125	-1689.847	1	4247.725	-23.44222	-3.094391E-006	0.0031299	8
	5	9	316265.6	4170.625	-1507.784	1	4434.808	-19.87617	6.949069E-007	0.0023411	8
	6	10	251203.1	4372.65	-1315.791	1	4566.33	-16.74726	-6.428855E-007	0.0024947	8
	7	11	199546.9	4533.169	-1138.81	1	4674.025	-14.10186	3.30871E-006	0.0017916	8
	8	13	158578.1	4644.828	-999.509	1	4751.151	-12.14415	3.77358E-007	0.0024773	8
	9	14	125953.1	4765.231	-803.6318	1	4832.52	-9.57257	-8.000591E-007	0.0039607	7
	10	16	100078.1	4824.504	-709.6643	1	4876.419	-8.36796	8.213541E-008	0.0021643	7
	11	17	79453.13	4883.052	-641.2034	1	4924.971	-7.480823	-5.730234E-008	0.0024061	7
	12	19	63140.62	4931.618	-590.4	1	4966.833	-6.826806	-2.590743E-008	0.0023048	7
	13	20	50203.12	4976.615	-557.8745	1	5007.786	-6.396108	-6.111382E-008	0.002525	7
	14	21	39890.62	5020.578	-539.1069	1	5049.439	-6.128905	-4.690498E-009	0.002371	7
	15	23	31640.63	5065.008	-536.5181	1	5093.345	-6.046587	-1.273847E-008	0.0023459	7
	16	24	25171.88	5108.992	-547.3957	1	5138.233	-6.115544	-2.789053E-008	0.0023749	7
	17	25	20015.62	5155.493	-569.9407	1	5186.9	-6.308443	-3.720063E-009	0.0023692	7
	18	27	15890.62	5199.634	-604.0455	1	5234.603	-6.626392	6.892736E-008	0.0022129	7
	19	28	12609.37	5253.453	-662.649	1	5295.08	-7.189088	-1.378705E-008	0.0023441	7
	20	29	10078.13	5309.489	-729.6133	1	5359.385	-7.824402	1.241896E-007	0.0021437	7
	21	31	8015.625	5365.949	-815.0213	1	5427.492	-8.63651	4.579918E-008	0.0021767	7
	22	32	6328.125	5432.745	-925.4794	1	5511.01	-9.66765	-3.646199E-008	0.0023274	7
	23	34	5015.625	5503.751	-1063.714	1	5605.602	-10.93873	1.231066E-007	0.0021482	7
	24	35	3984.375	5578.982	-1231.628	1	5713.313	-12.44907	6.775374E-008	0.0022092	7
	25	36	3170.956	5662.609	-1433.891	1	5841.334	-14.2098	-4.526478E-008	0.0023402	7
	26	38	2527.573	5754.891	-1679.606	1	5994.985	-16.27026	-2.486044E-008	0.0023009	7
	27	39	1976.103	5866.053	-2010.69	1	6201.084	-18.92003	-4.610756E-008	0.0023388	7
	28	40	1577.524	5982.933	-2380.076	1	6438.963	-21.69321	1.247824E-007	0.002149	7
	29	42	1265.625	6115.447	-2822.241	1	6735.261	-24.77304	-3.772656E-008	0.0023255	7
	30	43	998.264	6275.916	-3394.889	1	7135.292	-28.41069	7.762925E-009	0.0022669	7
	31	45	796.875	6452.887	-4064.732	1	7626.388	-32.2072	-3.4238E-009	0.002367	7
	32	46	627.7902	6661.411	-4928.426	1	8286.361	-36.49578	6.64779E-008	0.0022083	7
	33	47	505.5147	6884.491	-5887.378	1	9058.556	-40.53591	-1.377972E-008	0.0023431	7
	34	49	397.9953	7171.24	-7182.82	1	10149.86	-45.04622	1.413613E-009	0.0022852	6
	35	50	315.5048	7487.514	-8744.633	1	11512.23	-49.4285	8.55807E-010	0.0022798	6
	36	51	252.4038	7842.499	-10589.23	1	13177.12	-53.47595	8.334226E-010	0.0022807	6
	37	53	198.6229	8304.288	-13039.08	1	15458.94	-57.50788	1.17235E-009	0.0022766	6
	38	54	158.3615	8834.611	-15910.69	1	18198.91	-60.95823	5.939457E-010	0.0022744	6
	39	56	125.558	9516.46	-19538.29	1	21732.64	-64.0308	1.059966E-009	0.0022866	6
	40	57	100.4464	10364.04	-23828.83	1	25985.12	-66.494	2.425334E-010	0.0022791	6
	41	58	79.00281	11558.28	-29516.67	1	31699.02	-68.61545	1.009846E-009	0.002274	6
	42	60	63.3446	12658.29	-35760.37	1	37934.63	-70.5073	1.091467E-009	0.0022795	6
	43	61	49.86702	15077.2	-44376.66	1	46868.01	-71.23454	1.139286E-009	0.0022752	6
	44	63	39.72458	17402.23	-54279.66	1	57001.05	-72.22398	6.271108E-010	0.0022761	6
	45	64	31.6723	20523.03	-66039.66	1	69155.13	-72.73641	8.22504E-010	0.0022792	6
	46	65	24.93351	25103.2	-81304.49	1	85091.66	-72.84164	6.007578E-010	0.0022741	6
	47	67	19.86229	30795.88	-98639.7	1	103335.3	-72.66134	8.073084E-010	0.0022764	6
	48	68	15.83615	37077.74	-119402.8	1	125027.1	-72.74904	-5.414857E-010	0.0022798	5
	49	69	12.40079	48139.88	-145493	1	153250.3	-71.69196	6.489735E-010	0.0022831	5
	50	71	9.93114	60469.73	-174104.3	1	184306.5	-70.84692	4.10109E-010	0.0022799	5
	51	73	7.944915	76598.3	-207197.6	1	220903	-69.7113	8.319847E-010	0.0022804	5
	52	74	6.317385	96382.6	-246940.7	1	265083.6	-68.67896	1.680804E-010	0.0022877	5
	53	76	5.008013	122453.6	-293108.2	1	317659.1	-67.32599	2.577953E-010	0.0022687	5
	54	79	3.945707	155997.9	-347023.4	1	380474.2	-65.79459	6.108837E-010	0.0022882	5
	55	81	3.158693	194724.6	-404265.3	1	448718.3	-64.28104	1.747419E-010	0.0022645	5
	56	85	2.504006	243581	-469953	1	529327.4	-62.60188	5.37128E-010	0.0022862	5
	57	88	1.998082	299801.5	-539571.9	1	617267.3	-60.9422	5.89683E-010	0.0022759	5
	58	91	1.584686	369340	-617624.1	1	719632.9	-59.12052	3.048269E-010	0.0022259	5
	59	94	1.266892	443010	-697970.5	1	826692.6	-57.59623	4.808643E-010	0.0022634	5
	60	99	0.999041	533382.4	-793654.1	1	956234	-56.09657	2.79396E-011	0.002263	5
