EXPLAIN
TAG	EISPOT
TITLE	LABEL	Potentiostatic EIS	Test &Identifier
DATE	LABEL	10/16/2019	Date
TIME	LABEL	9:51:07	Time
NOTES	NOTES	1	&Notes...
	
PSTAT	PSTAT	REF600-11020	Potentiostat
VDC	POTEN	0.00000E+000	T	DC &Voltage (V)
FREQINIT	QUANT	1.00000E+006	Initial Fre&q. (Hz)
FREQFINAL	QUANT	1.00000E+000	Final Fre&q. (Hz)
PTSPERDEC	QUANT	1.00000E+001	Points/&decade
VAC	QUANT	2.50000E+001	AC &Voltage (mV rms)
AREA	QUANT	1.00000E-002	&Area (cm^2)
CONDIT	TWOPARAM	T	5.00000E+000	0.00000E+000	Conditionin&g	Time(s)	E(V)
DELAY	TWOPARAM	T	5.00000E+000	0.00000E+000	Init. De&lay	Time(s)	Stab.(mV/s)
SPEED	SELECTOR	0	&Optimize for:
ZGUESS	QUANT	1.00000E+005	E&stimated Z (ohms)
OCVCURVE	TABLE	19
	Pt	T	Vf	Vm	Ach	Over
	#	s	V vs. Ref.	V	V	bits
	0	0.258333	2.76437E-003	2.76437E-003	5.32266E-004	...........
	1	0.516667	2.76430E-003	2.76090E-003	5.36633E-004	...........
	2	0.775	2.75997E-003	2.55210E-003	5.35633E-004	...........
	3	1.03333	2.73992E-003	2.62681E-003	5.33500E-004	...........
	4	1.29167	2.70896E-003	3.07805E-003	5.33466E-004	...........
	5	1.55	2.71310E-003	3.16719E-003	5.39533E-004	...........
	6	1.80833	2.79094E-003	2.95087E-003	5.43499E-004	...........
	7	2.06667	2.90563E-003	2.95209E-003	5.44066E-004	...........
	8	2.325	2.98758E-003	3.15692E-003	5.42566E-004	...........
	9	2.58333	3.03819E-003	3.84570E-003	5.41633E-004	...........
	10	2.84167	3.12977E-003	3.53533E-003	5.40633E-004	...........
	11	3.1	3.27855E-003	2.99683E-003	5.41133E-004	...........
	12	3.35833	3.39611E-003	3.67767E-003	5.35066E-004	...........
	13	3.61667	3.43835E-003	3.90922E-003	5.38266E-004	...........
	14	3.875	3.48554E-003	3.94137E-003	5.43599E-004	...........
	15	4.13333	3.60290E-003	3.95936E-003	5.42666E-004	...........
	16	4.39167	3.75317E-003	3.98614E-003	5.41766E-004	...........
	17	4.65	3.89997E-003	5.34090E-003	5.40366E-004	...........
	18	4.90833	4.10020E-003	5.07989E-003	5.35666E-004	...........
EOC	QUANT	0.0041002	Open Circuit (V)
PSTATMODEL	IQUANT	4	Pstat Model
PSTATSECTION	LABEL	REF600-11020	Pstat Section
PSTATSERIALNO	LABEL	11020	Pstat Serial Number
CTRLMODE	IQUANT	1	Control Mode
IESTAB	IQUANT	0	I/E Stability
CASPEED	IQUANT	1	Control Amp Speed
CONVENTION	IQUANT	1	Current Convention
ICHRANGE	IQUANT	2	Ich Range
ICHRANGEMODE	TOGGLE	F	Ich Auto Range
ICHOFFSETENABLE	TOGGLE	T	Ich Offset Enable
ICHOFFSET	QUANT	0	Ich Offset (V)
ICHFILTER	IQUANT	3	Ich Filter
VCHRANGE	IQUANT	2	Vch Range
VCHRANGEMODE	TOGGLE	F	Vch Auto Range
VCHOFFSETENABLE	TOGGLE	T	Vch Offset Enable
VCHOFFSET	QUANT	0	Vch Offset (V)
VCHFILTER	IQUANT	3	Vch Filter
ACHRANGE	IQUANT	2	Ach Range
ACHOFFSETENABLE	TOGGLE	F	Ach Offset Enable
ACHOFFSET	QUANT	0	Ach Offset (V)
ACHFILTER	IQUANT	3	Ach Filter
IERANGELOWERLIMIT	IQUANT	1	I/E Range Lower Limit
IERANGEMODE	TOGGLE	F	I/E AutoRange
IERANGE	IQUANT	4	I/E Range
POSFEEDENABLE	TOGGLE	F	Positive Feedback IR Comp
POSFEEDRESISTANCE	QUANT	0	Positive Feedback Resistance (ohm)
ACHSELECT	IQUANT	0	Ach Select
CABLEID	IQUANT	14	Cable ID
DCCALDATE	LABEL	8/19/2019	DC Calibration Date
ACCALDATE	LABEL	8/19/2019	AC Calibration Date
THERMOSELECT	IQUANT	1	Thermo Select
FRAMEWORKVERSION	QUANT	6.33	Framework Version
INSTRUMENTVERSION	LABEL	3.50	Instrument Version
ZCURVE	TABLE
	Pt	Time	Freq	Zreal	Zimag	Zsig	Zmod	Zphz	Idc	Vdc	IERange
	#	s	Hz	ohm	ohm	V	ohm	°	A	V	#
	0	1	1000078	2428.324	-1820.056	1	3034.693	-36.85197	-1.914121E-006	0.0061407	8
	1	2	794390.6	2807.702	-1777.035	1	3322.806	-32.33031	-7.964986E-007	0.0061646	8
	2	2	630984.4	3145.607	-1665.839	1	3559.475	-27.90464	-6.142622E-007	0.0060678	8
	3	2	501234.4	3445.236	-1510.784	1	3761.93	-23.67811	7.282187E-007	0.0056747	8
	4	2	398109.4	3689.915	-1348.239	1	3928.514	-20.07154	-1.926486E-006	0.0059843	8
	5	3	316265.6	3866.663	-1182.002	1	4043.292	-16.9979	-2.782866E-006	0.0060962	8
	6	3	251203.1	4014.901	-1036.358	1	4146.501	-14.4737	3.477755E-006	0.0050169	8
	7	3	199546.9	4121.796	-877.0132	1	4214.066	-12.01195	1.542529E-006	0.0052097	8
	8	4	158578.1	4204.866	-757.7477	1	4272.596	-10.21548	5.276021E-007	0.0055658	8
	9	4	125953.1	4278.792	-583.7604	1	4318.43	-7.768962	4.440554E-007	0.0046358	7
	10	4	100078.1	4335.446	-540.5577	1	4369.016	-7.107149	-5.979488E-008	0.0056243	7
	11	5	79453.13	4376.905	-492.7222	1	4404.552	-6.422928	-2.5834E-008	0.0055381	7
	12	5	63140.62	4415.666	-461.2347	1	4439.689	-5.963158	9.83814E-008	0.0053928	7
	13	5	50203.12	4450.763	-440.6035	1	4472.519	-5.653578	-5.772739E-008	0.0056308	7
	14	6	39890.62	4485.292	-433.1287	1	4506.157	-5.515746	-6.91891E-009	0.0055337	7
	15	6	31640.63	4520.5	-434.6258	1	4541.345	-5.491852	7.655025E-008	0.0054745	7
	16	6	25171.88	4555.655	-450.2226	1	4577.848	-5.644053	-6.173578E-008	0.0056143	7
	17	7	20015.62	4616.939	-465.9182	1	4640.389	-5.762493	-1.445432E-008	0.0055122	7
	18	7	15890.62	4629.82	-514.3856	1	4658.307	-6.339717	6.906406E-009	0.0056145	7
	19	7	12609.37	4672.626	-567.6276	1	4706.978	-6.926316	-5.7007E-008	0.0057151	7
	20	8	10078.13	4716.196	-630.9352	1	4758.212	-7.619817	8.553504E-009	0.0054673	7
	21	8	8015.625	4769.993	-725.5783	1	4824.862	-8.649136	8.040931E-009	0.0054694	7
	22	8	6328.125	4811.742	-824.838	1	4881.927	-9.72721	5.267043E-008	0.0054488	7
	23	8	5015.625	4866.558	-959.547	1	4960.253	-11.15402	-3.574159E-008	0.0056191	7
	24	9	3984.375	4915.628	-1103.295	1	5037.922	-12.65019	-4.559225E-009	0.0055066	7
	25	9	3170.956	4991.159	-1329.304	1	5165.145	-14.91349	7.873964E-008	0.005466	7
	26	9	2527.573	5065.402	-1577.587	1	5305.382	-17.29886	-5.921043E-008	0.0056005	7
	27	10	1976.103	5156.689	-1910.349	1	5499.17	-20.32767	-5.969019E-008	0.0055997	7
	28	10	1577.524	5287.333	-2239.318	1	5741.988	-22.95388	-1.19165E-008	0.0055004	7
	29	10	1265.625	5370.808	-2735.435	1	6027.286	-26.99044	7.996479E-008	0.0054635	7
	30	11	998.264	5510.745	-3322.232	1	6434.713	-31.08428	6.62235E-008	0.005391	7
	31	11	796.875	5668.577	-4005.735	1	6941.086	-35.24718	6.487599E-008	0.005392	7
	32	11	627.7902	5877.461	-4890.316	1	7645.897	-39.762	-2.591683E-008	0.0055225	7
	33	12	505.5147	6075.905	-5881.681	1	8456.405	-44.06944	7.969866E-008	0.0054666	7
	34	12	397.9953	6348.807	-7212.68	1	9608.85	-48.64484	3.179791E-009	0.0055472	7
	35	12	315.5048	6670.065	-8816.796	1	11055.57	-52.89183	5.210973E-011	0.0054816	6
	36	13	252.4038	7043.155	-10712.34	1	12820.31	-56.67587	-1.219853E-010	0.0054757	6
	37	13	198.6229	7539.569	-13228.49	1	15226.23	-60.31905	3.722401E-010	0.0054771	6
	38	13	158.3615	8132.952	-16167.08	1	18097.5	-63.29504	-3.644357E-010	0.0054758	6
	39	14	125.558	8919.224	-19860.51	1	21771.37	-65.81547	1.622865E-010	0.005476	6
	40	14	100.4464	9938.22	-24202.2	1	26163.23	-67.67533	1.119875E-009	0.0054702	6
	41	14	79.00281	11385.24	-29977.37	1	32066.59	-69.2035	-1.931791E-010	0.0054745	6
	42	15	63.3446	12657.46	-36192.1	1	38341.61	-70.72373	2.613629E-010	0.0054692	6
	43	15	49.86702	15313.09	-44476.73	1	47039.03	-71.00169	-4.593548E-010	0.0054732	6
	44	15	39.72458	18597.66	-54457.23	1	57545.31	-71.14448	1.049749E-010	0.0054758	6
	45	16	31.6723	22780.97	-66006.87	1	69827.49	-70.95889	1.637372E-011	0.0054752	6
	46	16	24.93351	28632.44	-80219.7	1	85176.38	-70.35723	6.776746E-010	0.0054726	6
	47	16	19.86229	35788.27	-96362.3	1	102793.5	-69.62537	1.513454E-009	0.005476	6
	48	17	15.83615	45559.4	-115988.1	1	124615	-68.55541	1.739265E-009	0.0054755	5
	49	17	12.40079	59090.76	-138566.9	1	150640.3	-66.90455	-3.605959E-010	0.0054803	5
	50	17	9.93114	73483.55	-161437.8	1	177375.3	-65.52584	4.873781E-010	0.0054811	5
	51	18	7.944915	91413.23	-187361	1	208471.9	-63.9923	6.61447E-010	0.0054777	5
	52	18	6.317385	114392.8	-216729.6	1	245066.2	-62.17431	6.850193E-010	0.0054694	5
	53	19	5.008013	141998	-249424.3	1	287012.1	-60.347	3.698961E-010	0.0054839	5
	54	20	3.945707	172689.1	-285173.9	1	333385.2	-58.8027	1.474728E-010	0.0054855	5
	55	22	3.158693	205921	-321323.5	1	381644.1	-57.34612	-1.577199E-010	0.0054685	5
	56	23	2.504006	243147.5	-363070.3	1	436967.7	-56.18985	1.043648E-010	0.0054698	5
	57	25	1.998082	280459.1	-409481.9	1	496319.2	-55.59229	8.577618E-011	0.0054879	5
	58	26	1.584686	322668	-463193.6	1	564502.4	-55.13831	-7.439524E-011	0.0054451	5
	59	28	1.266892	366694.2	-526894.4	1	641936.4	-55.16387	-9.204713E-011	0.0054319	5
	60	31	0.999041	416258	-607235.6	1	736210.4	-55.56949	-1.255456E-010	0.0054478	5
