EXPLAIN
TAG	EISPOT
TITLE	LABEL	Potentiostatic EIS	Test &Identifier
DATE	LABEL	9/20/2019	Date
TIME	LABEL	12:19:54	Time
NOTES	NOTES	1	&Notes...
	
PSTAT	PSTAT	REF600-11020	Potentiostat
VDC	POTEN	0.00000E+000	T	DC &Voltage (V)
FREQINIT	QUANT	1.00000E+006	Initial Fre&q. (Hz)
FREQFINAL	QUANT	1.00000E+000	Final Fre&q. (Hz)
PTSPERDEC	QUANT	1.00000E+001	Points/&decade
VAC	QUANT	2.50000E+001	AC &Voltage (mV rms)
AREA	QUANT	1.00000E-002	&Area (cm^2)
CONDIT	TWOPARAM	T	5.00000E+000	0.00000E+000	Conditionin&g	Time(s)	E(V)
DELAY	TWOPARAM	T	5.00000E+000	0.00000E+000	Init. De&lay	Time(s)	Stab.(mV/s)
SPEED	SELECTOR	1	&Optimize for:
ZGUESS	QUANT	1.00000E+004	E&stimated Z (ohms)
OCVCURVE	TABLE	19
	Pt	T	Vf	Vm	Ach	Over
	#	s	V vs. Ref.	V	V	bits
	0	0.258333	3.60744E-003	3.60744E-003	5.65466E-004	...........
	1	0.516667	3.60195E-003	3.31999E-003	5.63466E-004	...........
	2	0.775	3.56850E-003	3.06162E-003	5.67899E-004	...........
	3	1.03333	3.47545E-003	2.84964E-003	5.67532E-004	...........
	4	1.29167	3.31379E-003	2.65002E-003	5.65032E-004	...........
	5	1.55	3.10777E-003	2.47038E-003	5.67999E-004	...........
	6	1.80833	2.89091E-003	2.29574E-003	5.72032E-004	...........
	7	2.06667	2.68396E-003	2.13371E-003	5.64899E-004	...........
	8	2.325	2.49316E-003	1.98605E-003	5.67432E-004	...........
	9	2.58333	2.31758E-003	1.84355E-003	5.76632E-004	...........
	10	2.84167	2.15506E-003	1.71961E-003	5.66032E-004	...........
	11	3.1	2.00418E-003	1.59657E-003	5.71799E-004	...........
	12	3.35833	1.86415E-003	1.48847E-003	5.69732E-004	...........
	13	3.61667	1.73399E-003	1.37075E-003	5.73299E-004	...........
	14	3.875	1.61180E-003	1.25803E-003	5.71866E-004	...........
	15	4.13333	1.49464E-003	1.13894E-003	5.76432E-004	...........
	16	4.39167	1.37994E-003	1.04708E-003	5.72332E-004	...........
	17	4.65	1.26747E-003	9.46547E-004	5.68932E-004	...........
	18	4.90833	1.15943E-003	8.77703E-004	5.71632E-004	...........
EOC	QUANT	0.0011594	Open Circuit (V)
PSTATMODEL	IQUANT	4	Pstat Model
PSTATSECTION	LABEL	REF600-11020	Pstat Section
PSTATSERIALNO	LABEL	11020	Pstat Serial Number
CTRLMODE	IQUANT	1	Control Mode
IESTAB	IQUANT	0	I/E Stability
CASPEED	IQUANT	1	Control Amp Speed
CONVENTION	IQUANT	1	Current Convention
ICHRANGE	IQUANT	2	Ich Range
ICHRANGEMODE	TOGGLE	F	Ich Auto Range
ICHOFFSETENABLE	TOGGLE	T	Ich Offset Enable
ICHOFFSET	QUANT	0	Ich Offset (V)
ICHFILTER	IQUANT	3	Ich Filter
VCHRANGE	IQUANT	2	Vch Range
VCHRANGEMODE	TOGGLE	F	Vch Auto Range
VCHOFFSETENABLE	TOGGLE	T	Vch Offset Enable
VCHOFFSET	QUANT	0	Vch Offset (V)
VCHFILTER	IQUANT	3	Vch Filter
ACHRANGE	IQUANT	2	Ach Range
ACHOFFSETENABLE	TOGGLE	F	Ach Offset Enable
ACHOFFSET	QUANT	0	Ach Offset (V)
ACHFILTER	IQUANT	3	Ach Filter
IERANGELOWERLIMIT	IQUANT	1	I/E Range Lower Limit
IERANGEMODE	TOGGLE	F	I/E AutoRange
IERANGE	IQUANT	5	I/E Range
POSFEEDENABLE	TOGGLE	F	Positive Feedback IR Comp
POSFEEDRESISTANCE	QUANT	0	Positive Feedback Resistance (ohm)
ACHSELECT	IQUANT	0	Ach Select
CABLEID	IQUANT	14	Cable ID
DCCALDATE	LABEL	8/19/2019	DC Calibration Date
ACCALDATE	LABEL	8/19/2019	AC Calibration Date
THERMOSELECT	IQUANT	1	Thermo Select
FRAMEWORKVERSION	QUANT	6.33	Framework Version
INSTRUMENTVERSION	LABEL	3.50	Instrument Version
ZCURVE	TABLE
	Pt	Time	Freq	Zreal	Zimag	Zsig	Zmod	Zphz	Idc	Vdc	IERange
	#	s	Hz	ohm	ohm	V	ohm	°	A	V	#
	0	2	1000078	2441.567	-1865.725	1	3072.813	-37.38528	-2.557851E-006	0.0049868	8
	1	3	794390.6	2816.275	-1845.338	1	3366.999	-33.23444	-1.921797E-007	0.0037107	8
	2	5	630984.4	3163.536	-1749.798	1	3615.211	-28.94762	-3.644331E-006	0.0038924	8
	3	6	501234.4	3486.234	-1627.111	1	3847.248	-25.01961	8.194517E-007	0.0029631	8
	4	8	398109.4	3737.726	-1461.531	1	4013.311	-21.35657	-2.543945E-006	0.0032905	8
	5	9	316265.6	3967.579	-1305.346	1	4176.794	-18.21137	3.120618E-006	0.0022613	8
	6	10	251203.1	4133.004	-1125.875	1	4283.61	-15.23824	-2.271551E-007	0.0028054	8
	7	12	199546.9	4259.327	-995.579	1	4374.133	-13.15617	5.764934E-007	0.0025969	8
	8	13	158578.1	4365.28	-833.4139	1	4444.125	-10.80877	4.426126E-006	0.0020453	8
	9	15	125953.1	4477.296	-692.6723	1	4530.561	-8.794378	7.121861E-007	0.0011978	7
	10	16	100078.1	4524.355	-616.8145	1	4566.208	-7.763388	-3.099094E-008	0.0028525	7
	11	17	79453.13	4576.374	-559.903	1	4610.498	-6.975268	4.485062E-008	0.0026995	7
	12	19	63140.62	4621.13	-514.9229	1	4649.73	-6.35812	1.320881E-008	0.0027743	7
	13	20	50203.12	4663.277	-486.5675	1	4688.593	-5.956701	-3.209108E-008	0.0028318	7
	14	22	39890.62	4701.962	-468.4407	1	4725.239	-5.689413	4.593359E-008	0.0026924	7
	15	23	31640.63	4739.662	-465.4539	1	4762.461	-5.608694	-3.979469E-009	0.002879	7
	16	24	25171.88	4779.529	-474.8779	1	4803.063	-5.674093	-1.013811E-008	0.002865	7
	17	26	20015.62	4817.562	-491.2014	1	4842.539	-5.821793	1.571294E-009	0.0029469	7
	18	27	15890.62	4856.951	-523.0107	1	4885.029	-6.146095	7.360923E-008	0.0027054	7
	19	28	12609.37	4898.849	-568.0916	1	4931.678	-6.614719	8.373405E-008	0.0026622	7
	20	30	10078.13	4941.881	-628.4843	1	4981.685	-7.247692	8.549994E-008	0.0027817	7
	21	31	8015.625	4987.806	-706.1826	1	5037.549	-8.05848	4.289878E-008	0.0027878	7
	22	32	6328.125	5040.447	-808.3753	1	5104.858	-9.111376	-5.229386E-008	0.0028803	7
	23	34	5015.625	5095.791	-933.8566	1	5180.654	-10.38481	-2.988714E-009	0.0028772	7
	24	35	3984.375	5157.042	-1089.493	1	5270.871	-11.92908	-3.679418E-009	0.0028761	7
	25	36	3170.956	5225.169	-1278.858	1	5379.394	-13.75277	4.351295E-008	0.0027873	7
	26	38	2527.573	5301.22	-1509.006	1	5511.809	-15.88914	-2.935949E-008	0.0028187	7
	27	39	1976.103	5396.884	-1817.903	1	5694.834	-18.61574	-6.600509E-008	0.0029299	7
	28	41	1577.524	5490.556	-2163.056	1	5901.272	-21.50243	8.463261E-008	0.0026594	7
	29	42	1265.625	5589.268	-2575.756	1	6154.221	-24.74212	-4.9684E-008	0.0030029	7
	30	43	998.264	5732.716	-3113.528	1	6523.656	-28.50707	-2.911916E-008	0.0028326	7
	31	45	796.875	5870.222	-3748.448	1	6964.938	-32.56039	-1.140628E-008	0.0028554	7
	32	46	627.7902	6039.392	-4572.701	1	7575.213	-37.13104	3.448121E-009	0.0029458	7
	33	47	505.5147	6218.274	-5489.609	1	8294.742	-41.43867	-3.191408E-008	0.0028294	7
	34	49	397.9953	6439.967	-6743.58	1	9324.647	-46.31927	5.011642E-009	0.0028517	7
	35	50	315.5048	6698.367	-8254.472	1	10630.35	-50.94124	1.529486E-009	0.0027855	6
	36	51	252.4038	6987.021	-10052.53	1	12242.21	-55.19873	9.158324E-010	0.0027822	6
	37	53	198.6229	7367.02	-12444.76	1	14461.85	-59.37541	1.142657E-009	0.0027858	6
	38	54	158.3615	7812.807	-15253.62	1	17138.05	-62.87877	7.008735E-010	0.0027864	6
	39	56	125.558	8391.383	-18811.82	1	20598.54	-65.9598	1.260516E-009	0.0027864	6
	40	57	100.4464	9096.767	-23017.32	1	24749.71	-68.43538	4.101963E-010	0.0027825	6
	41	58	79.00281	10126.21	-28676.54	1	30411.91	-70.55094	5.95469E-010	0.0027839	6
	42	60	63.3446	11123.2	-35145.85	1	36864.03	-72.4381	1.21992E-009	0.0027867	6
	43	61	49.86702	13031.36	-43242.47	1	45163.34	-73.22952	9.07228E-010	0.0027843	6
	44	63	39.72458	15261.65	-53210.72	1	55356.11	-73.9963	1.180697E-009	0.002788	6
	45	64	31.6723	18139.45	-65263.96	1	67737.91	-74.46728	6.916838E-010	0.0027889	6
	46	65	24.93351	22294.29	-80499.65	1	83529.8	-74.51998	9.273001E-010	0.0027869	6
	47	67	19.86229	27475.8	-98165.1	1	101937.8	-74.3634	5.252802E-010	0.0027846	6
	48	68	15.83615	34475.88	-119838.8	1	124699.3	-73.95024	1.78446E-009	0.0027859	5
	49	69	12.40079	43834.5	-146103.4	1	152537.4	-73.2995	5.285526E-010	0.0027854	5
	50	71	9.93114	56171.67	-175789.7	1	184546.1	-72.27929	6.22748E-010	0.0027816	5
	51	72	7.944915	72582.45	-210024.1	1	222212.4	-70.93531	6.301543E-010	0.0027919	5
	52	74	6.317385	92382.84	-250567.5	1	267055.5	-69.76135	1.383699E-010	0.002785	5
	53	76	5.008013	118116.6	-298623.3	1	321134.5	-68.41936	-1.224018E-011	0.0027827	5
	54	79	3.945707	152292.5	-354264.8	1	385611.9	-66.73795	2.727719E-010	0.0027871	5
	55	81	3.158693	191656.4	-413056.1	1	455354.3	-65.10889	1.018206E-010	0.0027745	5
	56	85	2.504006	241298.8	-480898.5	1	538041.3	-63.35403	1.995002E-010	0.0027988	5
	57	87	1.998082	298304	-552133	1	627563.7	-61.61872	4.339072E-010	0.0027638	5
	58	90	1.584686	368228.3	-635053.9	1	734088.2	-59.89322	8.19786E-011	0.0027471	5
	59	94	1.266892	444144.3	-717415.8	1	843771.1	-58.2388	3.239372E-010	0.0027603	5
	60	98	0.999041	535850.6	-817180.8	1	977200	-56.74591	-5.829505E-011	0.0028074	5
