EXPLAIN
TAG	EISPOT
TITLE	LABEL	Potentiostatic EIS	Test &Identifier
DATE	LABEL	11/22/2019	Date
TIME	LABEL	1:30:09	Time
NOTES	NOTES	4	&Notes...
	
	
	
	
PSTAT	PSTAT	REF600-11020	Potentiostat
VDC	POTEN	0.00000E+000	T	DC &Voltage (V)
FREQINIT	QUANT	1.00000E+006	Initial Fre&q. (Hz)
FREQFINAL	QUANT	1.00000E+000	Final Fre&q. (Hz)
PTSPERDEC	QUANT	1.00000E+001	Points/&decade
VAC	QUANT	2.50000E+001	AC &Voltage (mV rms)
AREA	QUANT	1.00000E-002	&Area (cm^2)
CONDIT	TWOPARAM	T	5.00000E+000	0.00000E+000	Conditionin&g	Time(s)	E(V)
DELAY	TWOPARAM	T	5.00000E+000	0.00000E+000	Init. De&lay	Time(s)	Stab.(mV/s)
SPEED	SELECTOR	1	&Optimize for:
ZGUESS	QUANT	1.00000E+005	E&stimated Z (ohms)
OCVCURVE	TABLE	19
	Pt	T	Vf	Vm	Ach	Over
	#	s	V vs. Ref.	V	V	bits
	0	0.258333	5.46357E-003	5.46357E-003	5.54733E-004	...........
	1	0.516667	5.46342E-003	5.45556E-003	5.51466E-004	...........
	2	0.775	5.46223E-003	5.43480E-003	5.44533E-004	...........
	3	1.03333	5.45828E-003	5.42809E-003	5.53633E-004	...........
	4	1.29167	5.45077E-003	5.42584E-003	5.48666E-004	...........
	5	1.55	5.44161E-003	5.43116E-003	5.46766E-004	...........
	6	1.80833	5.43428E-003	5.43781E-003	5.50799E-004	...........
	7	2.06667	5.43123E-003	5.44394E-003	5.47799E-004	...........
	8	2.325	5.43294E-003	5.46683E-003	5.39999E-004	...........
	9	2.58333	5.43920E-003	5.48052E-003	5.41533E-004	...........
	10	2.84167	5.44983E-003	5.50092E-003	5.46533E-004	...........
	11	3.1	5.46414E-003	5.51999E-003	5.47033E-004	...........
	12	3.35833	5.48103E-003	5.54208E-003	5.47999E-004	...........
	13	3.61667	5.49973E-003	5.56639E-003	5.39633E-004	...........
	14	3.875	5.51995E-003	5.58863E-003	5.53566E-004	...........
	15	4.13333	5.54150E-003	5.61117E-003	5.48866E-004	...........
	16	4.39167	5.56394E-003	5.63513E-003	5.49733E-004	...........
	17	4.65	5.58680E-003	5.65784E-003	5.48699E-004	...........
	18	4.90833	5.60991E-003	5.68449E-003	5.47799E-004	...........
EOC	QUANT	0.0056099	Open Circuit (V)
PSTATMODEL	IQUANT	4	Pstat Model
PSTATSECTION	LABEL	REF600-11020	Pstat Section
PSTATSERIALNO	LABEL	11020	Pstat Serial Number
CTRLMODE	IQUANT	1	Control Mode
IESTAB	IQUANT	0	I/E Stability
CASPEED	IQUANT	1	Control Amp Speed
CONVENTION	IQUANT	1	Current Convention
ICHRANGE	IQUANT	2	Ich Range
ICHRANGEMODE	TOGGLE	F	Ich Auto Range
ICHOFFSETENABLE	TOGGLE	T	Ich Offset Enable
ICHOFFSET	QUANT	0	Ich Offset (V)
ICHFILTER	IQUANT	3	Ich Filter
VCHRANGE	IQUANT	2	Vch Range
VCHRANGEMODE	TOGGLE	F	Vch Auto Range
VCHOFFSETENABLE	TOGGLE	T	Vch Offset Enable
VCHOFFSET	QUANT	0	Vch Offset (V)
VCHFILTER	IQUANT	3	Vch Filter
ACHRANGE	IQUANT	2	Ach Range
ACHOFFSETENABLE	TOGGLE	F	Ach Offset Enable
ACHOFFSET	QUANT	0	Ach Offset (V)
ACHFILTER	IQUANT	3	Ach Filter
IERANGELOWERLIMIT	IQUANT	1	I/E Range Lower Limit
IERANGEMODE	TOGGLE	F	I/E AutoRange
IERANGE	IQUANT	5	I/E Range
POSFEEDENABLE	TOGGLE	F	Positive Feedback IR Comp
POSFEEDRESISTANCE	QUANT	0	Positive Feedback Resistance (ohm)
ACHSELECT	IQUANT	0	Ach Select
CABLEID	IQUANT	14	Cable ID
DCCALDATE	LABEL	8/19/2019	DC Calibration Date
ACCALDATE	LABEL	8/19/2019	AC Calibration Date
THERMOSELECT	IQUANT	1	Thermo Select
FRAMEWORKVERSION	QUANT	6.33	Framework Version
INSTRUMENTVERSION	LABEL	3.50	Instrument Version
ZCURVE	TABLE
	Pt	Time	Freq	Zreal	Zimag	Zsig	Zmod	Zphz	Idc	Vdc	IERange
	#	s	Hz	ohm	ohm	V	ohm	°	A	V	#
	0	1	1000078	1989.692	-1525.211	1	2507.019	-37.47219	6.123268E-006	0.0075723	8
	1	2	794390.6	2224.478	-1536.778	1	2703.699	-34.63861	-6.849752E-006	0.0080513	8
	2	3	630984.4	2458.77	-1553.643	1	2908.497	-32.2879	-2.697561E-006	0.0078535	8
	3	5	501234.4	2678.61	-1583.616	1	3111.718	-30.59192	6.894979E-006	0.0063343	8
	4	6	398109.4	2904.689	-1634.004	1	3332.744	-29.3595	-6.92474E-006	0.0079707	8
	5	8	316265.6	3127.336	-1674.391	1	3547.367	-28.16481	-9.63876E-007	0.0074363	8
	6	9	251203.1	3360.771	-1740.075	1	3784.527	-27.37334	2.136648E-006	0.0065578	8
	7	11	199546.9	3614.693	-1806.632	1	4041.031	-26.55599	-2.739083E-006	0.007552	8
	8	12	158578.1	3887.273	-1904.875	1	4328.908	-26.10617	-2.615929E-006	0.0075442	8
	9	13	125953.1	4256.074	-1904.481	1	4662.748	-24.10726	-5.49496E-007	0.0102392	7
	10	15	100078.1	4596.749	-1945.425	1	4991.471	-22.93894	4.460287E-007	0.0053285	7
	11	16	79453.13	4954.108	-1975.718	1	5333.54	-21.7423	-2.506568E-007	0.008344	7
	12	17	63140.62	5329.807	-1946.172	1	5674.014	-20.0596	1.107691E-006	0.0054397	7
	13	19	50203.12	5661.979	-1855.723	1	5958.332	-18.14664	-1.261521E-006	0.008164	7
	14	20	39890.62	5979.009	-1738.447	1	6226.616	-16.21223	-3.720405E-007	0.006196	7
	15	22	31640.63	6259.021	-1601.717	1	6460.715	-14.35425	-1.259428E-006	0.0085327	7
	16	23	25171.88	6479.668	-1451.475	1	6640.247	-12.62608	-7.986938E-007	0.006914	7
	17	25	20015.62	6662.936	-1313.601	1	6791.19	-11.15286	-1.26617E-006	0.0081718	7
	18	27	15890.62	6831.762	-1203.755	1	6937.002	-9.99294	6.768946E-007	0.0071111	7
	19	28	12609.37	6939.541	-1110.622	1	7027.852	-9.092657	1.108173E-006	0.0054278	7
	20	30	10078.13	7026.524	-1049.661	1	7104.494	-8.496329	1.260172E-007	0.0079111	7
	21	32	8015.625	7084.211	-1001.344	1	7154.631	-8.045387	-1.105962E-006	0.0086671	7
	22	33	6328.125	7135.73	-1015.581	1	7207.639	-8.100127	-1.269648E-006	0.0081596	7
	23	35	5015.625	7235.925	-1067.385	1	7314.228	-8.391294	1.066791E-006	0.0061694	7
	24	37	3984.375	7270.413	-1140.862	1	7359.38	-8.918043	-1.105173E-006	0.0086729	7
	25	38	3170.956	7328.813	-1272.041	1	7438.386	-9.84657	-5.952882E-007	0.0086098	7
	26	40	2527.573	7392.411	-1449.936	1	7533.263	-11.09704	1.31268E-007	0.0079207	7
	27	42	1976.103	7439.436	-1695.593	1	7630.219	-12.83951	-3.711396E-007	0.0061939	7
	28	44	1577.524	7533.499	-2000.55	1	7794.601	-14.87187	-2.439049E-007	0.0083445	7
	29	45	1265.625	7613.05	-2377.057	1	7975.521	-17.34016	4.569769E-007	0.0074624	7
	30	47	998.264	7680.666	-2865.88	1	8197.92	-20.46201	-1.257933E-006	0.0085309	7
	31	48	796.875	7803.919	-3468.936	1	8540.18	-23.96572	-8.869671E-007	0.008723	7
	32	50	627.7902	7964.699	-4262.992	1	9033.8	-28.15728	9.815703E-007	0.005225	7
	33	51	505.5147	8132.896	-5155	1	9629.02	-32.36838	1.073268E-006	0.0061692	7
	34	52	397.9953	8337.15	-6326.662	1	10465.88	-37.19311	7.035676E-009	0.007	7
	35	54	315.5048	8612.705	-7761.259	1	11593.78	-42.0233	1.301328E-009	0.0069409	6
	36	55	252.4038	8938.609	-9458.157	1	13013.67	-46.61768	1.269609E-009	0.0069453	6
	37	57	198.6229	9389.194	-11697.16	1	14999.35	-51.24633	7.769777E-010	0.0069487	6
	38	58	158.3615	9936.72	-14299.76	1	17413.26	-55.20504	9.076012E-010	0.0069374	6
	39	59	125.558	10672.48	-17560.97	1	20549.69	-58.71134	8.88245E-010	0.0069467	6
	40	61	100.4464	11608.88	-21381.91	1	24330.07	-61.50113	1.951463E-009	0.0069332	6
	41	62	79.00281	12914.73	-26343.42	1	29338.81	-63.88383	6.931363E-010	0.0069391	6
	42	63	63.3446	14545.04	-32228.29	1	35358.46	-65.70973	3.8919E-010	0.0069444	6
	43	65	49.86702	16557.48	-39145.14	1	42502.85	-67.07278	1.028724E-009	0.0069477	6
	44	66	39.72458	19495.41	-47645.58	1	51479.82	-67.74682	8.724536E-010	0.0069495	6
	45	68	31.6723	23112.95	-57555.46	1	62022.89	-68.12074	2.672983E-010	0.0069453	6
	46	69	24.93351	28246.06	-69875.52	1	75368.62	-67.98977	1.131046E-009	0.0069362	6
	47	71	19.86229	34332.7	-83782.76	1	90544.38	-67.71705	7.295795E-011	0.0069462	6
	48	72	15.83615	43067.45	-99485.9	1	108407.8	-66.59221	-1.190056E-010	0.0069423	5
	49	73	12.40079	52943.55	-120169.8	1	131315.7	-66.22301	1.201258E-010	0.0069407	5
	50	75	9.93114	65979.56	-141134.9	1	155795.9	-64.94424	6.512508E-010	0.0069298	5
	51	76	7.944915	81608.46	-165224.8	1	184280.2	-63.71414	7.565448E-011	0.0069303	5
	52	78	6.317385	101564	-191101.1	1	216413.6	-62.01082	8.029202E-010	0.0069426	5
	53	80	5.008013	125921	-220959.5	1	254321	-60.32194	4.906327E-010	0.006959	5
	54	83	3.945707	155635.7	-254285	1	298133.1	-58.53119	1.711571E-010	0.0069504	5
	55	85	3.158693	187558	-286907	1	342773.4	-56.82639	-1.672446E-011	0.0069574	5
	56	89	2.504006	224531.9	-323386.9	1	393692.3	-55.22723	4.4289E-010	0.0069426	5
	57	91	1.998082	263310.2	-360653.8	1	446546.1	-53.86715	-1.170614E-011	0.0069983	5
	58	95	1.584686	304304.5	-403064.9	1	505037.2	-52.94806	2.150522E-010	0.0069464	5
	59	98	1.266892	347675.1	-449620.8	1	568363.3	-52.28655	1.039119E-010	0.0069818	5
	60	103	0.999041	394810.6	-506829.9	1	642457.8	-52.0821	-1.883943E-010	0.0069091	5
