EXPLAIN
TAG	EISPOT
TITLE	LABEL	Potentiostatic EIS	Test &Identifier
DATE	LABEL	11/3/2019	Date
TIME	LABEL	10:55:04	Time
NOTES	NOTES	1	&Notes...
	
PSTAT	PSTAT	REF600-11020	Potentiostat
VDC	POTEN	0.00000E+000	T	DC &Voltage (V)
FREQINIT	QUANT	1.00000E+006	Initial Fre&q. (Hz)
FREQFINAL	QUANT	1.00000E+000	Final Fre&q. (Hz)
PTSPERDEC	QUANT	1.00000E+001	Points/&decade
VAC	QUANT	2.50000E+001	AC &Voltage (mV rms)
AREA	QUANT	1.00000E-002	&Area (cm^2)
CONDIT	TWOPARAM	T	5.00000E+000	0.00000E+000	Conditionin&g	Time(s)	E(V)
DELAY	TWOPARAM	T	5.00000E+000	0.00000E+000	Init. De&lay	Time(s)	Stab.(mV/s)
SPEED	SELECTOR	1	&Optimize for:
ZGUESS	QUANT	1.00000E+005	E&stimated Z (ohms)
OCVCURVE	TABLE	19
	Pt	T	Vf	Vm	Ach	Over
	#	s	V vs. Ref.	V	V	bits
	0	0.258333	3.50744E-003	3.50744E-003	5.41033E-004	...........
	1	0.516667	3.50226E-003	3.23666E-003	5.35233E-004	...........
	2	0.775	3.47089E-003	3.00030E-003	5.28833E-004	...........
	3	1.03333	3.38361E-003	2.78362E-003	5.33966E-004	...........
	4	1.29167	3.23106E-003	2.58945E-003	5.33633E-004	...........
	5	1.55	3.03434E-003	2.40692E-003	5.37933E-004	...........
	6	1.80833	2.82419E-003	2.24033E-003	5.31866E-004	...........
	7	2.06667	2.62128E-003	2.07787E-003	5.35233E-004	...........
	8	2.325	2.43316E-003	1.93288E-003	5.35666E-004	...........
	9	2.58333	2.26012E-003	1.80412E-003	5.31066E-004	...........
	10	2.84167	2.10149E-003	1.71026E-003	5.33033E-004	...........
	11	3.1	1.95645E-003	1.50368E-003	5.36933E-004	...........
	12	3.35833	1.81748E-003	1.29572E-003	5.37766E-004	...........
	13	3.61667	1.66943E-003	1.10761E-003	5.33000E-004	...........
	14	3.875	1.50533E-003	1.08999E-003	5.34766E-004	...........
	15	4.13333	1.34063E-003	1.00799E-003	5.31433E-004	...........
	16	4.39167	1.20077E-003	9.62592E-004	5.38299E-004	...........
	17	4.65	1.09569E-003	8.43667E-004	5.35499E-004	...........
	18	4.90833	1.01333E-003	7.40925E-004	5.41766E-004	...........
EOC	QUANT	0.0010133	Open Circuit (V)
PSTATMODEL	IQUANT	4	Pstat Model
PSTATSECTION	LABEL	REF600-11020	Pstat Section
PSTATSERIALNO	LABEL	11020	Pstat Serial Number
CTRLMODE	IQUANT	1	Control Mode
IESTAB	IQUANT	0	I/E Stability
CASPEED	IQUANT	1	Control Amp Speed
CONVENTION	IQUANT	1	Current Convention
ICHRANGE	IQUANT	2	Ich Range
ICHRANGEMODE	TOGGLE	F	Ich Auto Range
ICHOFFSETENABLE	TOGGLE	T	Ich Offset Enable
ICHOFFSET	QUANT	0	Ich Offset (V)
ICHFILTER	IQUANT	3	Ich Filter
VCHRANGE	IQUANT	2	Vch Range
VCHRANGEMODE	TOGGLE	F	Vch Auto Range
VCHOFFSETENABLE	TOGGLE	T	Vch Offset Enable
VCHOFFSET	QUANT	0	Vch Offset (V)
VCHFILTER	IQUANT	3	Vch Filter
ACHRANGE	IQUANT	2	Ach Range
ACHOFFSETENABLE	TOGGLE	F	Ach Offset Enable
ACHOFFSET	QUANT	0	Ach Offset (V)
ACHFILTER	IQUANT	3	Ach Filter
IERANGELOWERLIMIT	IQUANT	1	I/E Range Lower Limit
IERANGEMODE	TOGGLE	F	I/E AutoRange
IERANGE	IQUANT	4	I/E Range
POSFEEDENABLE	TOGGLE	F	Positive Feedback IR Comp
POSFEEDRESISTANCE	QUANT	0	Positive Feedback Resistance (ohm)
ACHSELECT	IQUANT	0	Ach Select
CABLEID	IQUANT	14	Cable ID
DCCALDATE	LABEL	8/19/2019	DC Calibration Date
ACCALDATE	LABEL	8/19/2019	AC Calibration Date
THERMOSELECT	IQUANT	1	Thermo Select
FRAMEWORKVERSION	QUANT	6.33	Framework Version
INSTRUMENTVERSION	LABEL	3.50	Instrument Version
ZCURVE	TABLE
	Pt	Time	Freq	Zreal	Zimag	Zsig	Zmod	Zphz	Idc	Vdc	IERange
	#	s	Hz	ohm	ohm	V	ohm	°	A	V	#
	0	1	1000078	2032.031	-1716.785	1	2660.169	-40.19319	2.61166E-006	0.0037908	8
	1	3	794390.6	2380.844	-1751.792	1	2955.874	-36.34511	-1.424575E-006	0.0034587	8
	2	4	630984.4	2711.544	-1723.348	1	3212.849	-32.4384	7.659055E-006	0.0013233	8
	3	5	501234.4	3031.916	-1648.526	1	3451.109	-28.534	-2.895448E-006	0.0023751	8
	4	7	398109.4	3306.272	-1555.63	1	3653.96	-25.19739	-2.482034E-006	0.002488	8
	5	8	316265.6	3580.676	-1421.21	1	3852.412	-21.64868	8.175212E-008	0.0022291	8
	6	9	251203.1	3787.646	-1297.036	1	4003.569	-18.90318	-3.769383E-006	0.0031308	8
	7	11	199546.9	3961.948	-1153.85	1	4126.549	-16.2373	-7.974202E-007	0.002993	8
	8	12	158578.1	4111.633	-1018.293	1	4235.853	-13.91006	-3.506642E-008	0.0022366	8
	9	13	125953.1	4255.737	-862.4786	1	4342.253	-11.45654	-6.934058E-007	0.0059716	7
	10	15	100078.1	4345.094	-771.7432	1	4413.097	-10.07142	1.092551E-006	0.0017368	7
	11	16	79453.13	4412.395	-703.023	1	4468.05	-9.052794	-3.007887E-007	0.0039579	7
	12	18	63140.62	4479.199	-646.8647	1	4525.667	-8.217572	1.088281E-007	0.0010535	7
	13	19	50203.12	4530.242	-611.2891	1	4571.298	-7.684801	-9.52801E-007	0.004308	7
	14	20	39890.62	4588.689	-590.9581	1	4626.586	-7.33849	8.749549E-008	0.0035272	7
	15	22	31640.63	4629.099	-582.2473	1	4665.573	-7.169005	-1.307063E-006	0.0036859	7
	16	23	25171.88	4679.372	-591.0899	1	4716.557	-7.19937	-7.944075E-007	0.0023561	7
	17	24	20015.62	4737.91	-614.0464	1	4777.535	-7.384531	8.637036E-008	0.0035279	7
	18	26	15890.62	4793.049	-657.0881	1	4837.88	-7.806126	1.096133E-006	0.0017244	7
	19	27	12609.37	4833.634	-711.4704	1	4885.715	-8.373333	-3.460604E-007	0.0016192	7
	20	28	10078.13	4888.83	-795.1844	1	4953.077	-9.238445	-7.941262E-007	0.0023612	7
	21	30	8015.625	4946.633	-884.5588	1	5025.1	-10.13849	4.275966E-007	0.0030677	7
	22	31	6328.125	5013.828	-1015.678	1	5115.669	-11.45175	6.692561E-007	0.0027198	7
	23	32	5015.625	5083.683	-1174.076	1	5217.499	-13.00444	1.09753E-006	0.0017241	7
	24	34	3984.375	5156.021	-1368.394	1	5334.515	-14.8635	5.0975E-007	0.0007273	7
	25	35	3170.956	5227.929	-1610.125	1	5470.26	-17.11806	-3.006152E-007	0.0039514	7
	26	36	2527.573	5313.411	-1904.454	1	5644.403	-19.71889	-9.521321E-007	0.004308	7
	27	38	1976.103	5431.271	-2299.921	1	5898.164	-22.95067	-9.521321E-007	0.004306	7
	28	39	1577.524	5598.54	-2743.877	1	6234.782	-26.10975	8.265837E-007	0.0005974	7
	29	41	1265.625	5696.564	-3288.601	1	6577.67	-29.99764	6.682648E-007	0.0027105	7
	30	42	998.264	5886.737	-4000.052	1	7117.168	-34.19621	1.186579E-006	0.0012673	7
	31	43	796.875	6086.665	-4809.684	1	7757.612	-38.3158	4.272136E-007	0.003064	7
	32	45	627.7902	6344.989	-5852.13	1	8631.704	-42.68607	-1.129478E-006	0.0030736	7
	33	46	505.5147	6629.703	-7051.548	1	9678.7	-46.76609	9.073829E-007	0.0022479	7
	34	47	397.9953	7018.427	-8610.217	1	11108.29	-50.81557	5.622976E-009	0.0025269	7
	35	49	315.5048	7481.515	-10486.59	1	12881.83	-54.49456	1.312134E-009	0.0024756	6
	36	50	252.4038	8026.386	-12691.71	1	15016.74	-57.69027	1.033455E-009	0.0024719	6
	37	51	198.6229	8767.757	-15589.95	1	17886.31	-60.64668	9.418406E-010	0.0024615	6
	38	53	158.3615	9672.45	-18942.59	1	21269.18	-62.95027	9.205451E-010	0.0024699	6
	39	54	125.558	10870.57	-23127.79	1	25555.12	-64.82544	3.138511E-010	0.0024672	6
	40	56	100.4464	12398.08	-28034.64	1	30653.77	-66.14299	1.06048E-009	0.0024601	6
	41	57	79.00281	14576.43	-34227.57	1	37202.13	-66.9324	-2.150526E-010	0.0024682	6
	42	58	63.3446	16745.87	-41252.66	1	44521.97	-67.90608	3.566853E-010	0.0024625	6
	43	60	49.86702	21337.78	-49776.1	1	54156.82	-66.79639	1.51199E-009	0.0024599	6
	44	61	39.72458	25960	-59944.6	1	65324.39	-66.58418	7.355233E-010	0.0024668	6
	45	62	31.6723	31949.27	-70923.55	1	77787.57	-65.74963	7.196578E-010	0.0024719	6
	46	64	24.93351	40432.09	-84684.94	1	93841.85	-64.47826	4.09689E-011	0.0024639	6
	47	65	19.86229	50505.71	-98925.9	1	111072.7	-62.95382	6.666079E-010	0.0024776	5
	48	66	15.83615	62233.52	-115870.2	1	131525.3	-61.75989	-1.808955E-009	0.0024781	5
	49	68	12.40079	76496.95	-132515.4	1	153010.2	-60.00353	4.365951E-010	0.0024811	5
	50	69	9.93114	93466.23	-150463.3	1	177130.3	-58.15188	3.259639E-011	0.0024664	5
	51	71	7.944915	110872.8	-169230.2	1	202315.7	-56.76879	7.417406E-010	0.0024663	5
	52	73	6.317385	130850.4	-190272.2	1	230922.8	-55.48366	7.42968E-010	0.0024672	5
	53	75	5.008013	152204.4	-214932.8	1	263367.2	-54.69582	4.507545E-010	0.0024815	5
	54	77	3.945707	175552.2	-243821.7	1	300445.7	-54.24603	-4.524281E-011	0.0024663	5
	55	80	3.158693	199102	-275537.2	1	339944.6	-54.14828	3.06801E-010	0.0024697	5
	56	83	2.504006	225572.8	-314720.3	1	387210.5	-54.36929	-9.201641E-012	0.0024725	5
	57	86	1.998082	253147.2	-359532.8	1	439712.8	-54.85061	3.644123E-010	0.0024352	5
	58	89	1.584686	285731.7	-416303.6	1	504927	-55.53608	7.626588E-011	0.0024258	5
	59	92	1.266892	320627.4	-479532.1	1	576847.4	-56.2323	2.899717E-010	0.0024371	5
	60	97	0.999041	363527.7	-560538.3	1	668098.4	-57.03525	-1.785313E-010	0.0024808	5
