EXPLAIN
TAG	EISPOT
TITLE	LABEL	Potentiostatic IDE	Test &Identifier
DATE	LABEL	9/10/2019	Date
TIME	LABEL	8:11:37	Time
NOTES	NOTES	1	&Notes...
	
PSTAT	PSTAT	REF600-11020	Potentiostat
VDC	POTEN	0.00000E+000	T	DC &Voltage (V)
FREQINIT	QUANT	1.00000E+006	Initial Fre&q. (Hz)
FREQFINAL	QUANT	1.00000E+000	Final Fre&q. (Hz)
PTSPERDEC	QUANT	1.00000E+001	Points/&decade
VAC	QUANT	2.50000E+001	AC &Voltage (mV rms)
AREA	QUANT	1.00000E-002	&Area (cm^2)
CONDIT	TWOPARAM	T	5.00000E+000	0.00000E+000	Conditionin&g	Time(s)	E(V)
DELAY	TWOPARAM	T	5.00000E+000	0.00000E+000	Init. De&lay	Time(s)	Stab.(mV/s)
SPEED	SELECTOR	1	&Optimize for:
ZGUESS	QUANT	1.00000E+007	E&stimated Z (ohms)
OCVCURVE	TABLE	19
	Pt	T	Vf	Vm	Ach	Over
	#	s	V vs. Ref.	V	V	bits
	0	0.258333	4.85282E-003	4.85282E-003	5.78865E-004	...........
	1	0.516667	4.85017E-003	4.71411E-003	5.79499E-004	...........
	2	0.775	4.83364E-003	4.56909E-003	5.83499E-004	...........
	3	1.03333	4.78675E-003	4.46829E-003	5.76032E-004	...........
	4	1.29167	4.70466E-003	4.38550E-003	5.80832E-004	...........
	5	1.55	4.60152E-003	4.31199E-003	5.79632E-004	...........
	6	1.80833	4.49744E-003	4.24952E-003	5.80532E-004	...........
	7	2.06667	4.40471E-003	4.19474E-003	5.80999E-004	...........
	8	2.325	4.32614E-003	4.14413E-003	5.80232E-004	...........
	9	2.58333	4.25980E-003	4.10607E-003	5.84099E-004	...........
	10	2.84167	4.20309E-003	4.06863E-003	5.80599E-004	...........
	11	3.1	4.15422E-003	4.04003E-003	5.80732E-004	...........
	12	3.35833	4.11200E-003	4.00675E-003	5.80266E-004	...........
	13	3.61667	4.07511E-003	3.98272E-003	5.79632E-004	...........
	14	3.875	4.04224E-003	3.95622E-003	5.76599E-004	...........
	15	4.13333	4.01248E-003	3.93543E-003	5.82165E-004	...........
	16	4.39167	3.98539E-003	3.91697E-003	5.79232E-004	...........
	17	4.65	3.96081E-003	3.89376E-003	5.80699E-004	...........
	18	4.90833	3.93839E-003	3.87968E-003	5.82232E-004	...........
EOC	QUANT	0.0039384	Open Circuit (V)
PSTATMODEL	IQUANT	4	Pstat Model
PSTATSECTION	LABEL	REF600-11020	Pstat Section
PSTATSERIALNO	LABEL	11020	Pstat Serial Number
CTRLMODE	IQUANT	1	Control Mode
IESTAB	IQUANT	0	I/E Stability
CASPEED	IQUANT	1	Control Amp Speed
CONVENTION	IQUANT	1	Current Convention
ICHRANGE	IQUANT	2	Ich Range
ICHRANGEMODE	TOGGLE	F	Ich Auto Range
ICHOFFSETENABLE	TOGGLE	T	Ich Offset Enable
ICHOFFSET	QUANT	0	Ich Offset (V)
ICHFILTER	IQUANT	3	Ich Filter
VCHRANGE	IQUANT	2	Vch Range
VCHRANGEMODE	TOGGLE	F	Vch Auto Range
VCHOFFSETENABLE	TOGGLE	T	Vch Offset Enable
VCHOFFSET	QUANT	0	Vch Offset (V)
VCHFILTER	IQUANT	3	Vch Filter
ACHRANGE	IQUANT	2	Ach Range
ACHOFFSETENABLE	TOGGLE	F	Ach Offset Enable
ACHOFFSET	QUANT	0	Ach Offset (V)
ACHFILTER	IQUANT	3	Ach Filter
IERANGELOWERLIMIT	IQUANT	1	I/E Range Lower Limit
IERANGEMODE	TOGGLE	F	I/E AutoRange
IERANGE	IQUANT	2	I/E Range
POSFEEDENABLE	TOGGLE	F	Positive Feedback IR Comp
POSFEEDRESISTANCE	QUANT	0	Positive Feedback Resistance (ohm)
ACHSELECT	IQUANT	0	Ach Select
CABLEID	IQUANT	14	Cable ID
DCCALDATE	LABEL	8/19/2019	DC Calibration Date
ACCALDATE	LABEL	8/19/2019	AC Calibration Date
THERMOSELECT	IQUANT	1	Thermo Select
FRAMEWORKVERSION	QUANT	6.33	Framework Version
INSTRUMENTVERSION	LABEL	3.50	Instrument Version
ZCURVE	TABLE
	Pt	Time	Freq	Zreal	Zimag	Zsig	Zmod	Zphz	Idc	Vdc	IERange
	#	s	Hz	ohm	ohm	V	ohm	°	A	V	#
	0	1	1000078	2267.693	-1100.074	1	2520.436	-25.87835	-2.81283E-006	0.006221	8
	1	3	794390.6	2450.502	-1000.502	1	2646.879	-22.20944	-2.386223E-006	0.0067266	8
	2	4	630984.4	2594.69	-872.5743	1	2737.481	-18.5874	4.516939E-006	0.0049743	8
	3	5	501234.4	2714.055	-770.1758	1	2821.217	-15.84252	-7.657279E-007	0.0058257	8
	4	7	398109.4	2804.652	-674.1105	1	2884.527	-13.51493	2.683525E-006	0.0052078	8
	5	8	316265.6	2869.366	-588.8412	1	2929.163	-11.59703	-1.696222E-006	0.0059737	8
	6	9	251203.1	2922.691	-529.0323	1	2970.185	-10.25994	-3.593376E-007	0.0058394	8
	7	11	199546.9	2973.958	-470.6862	1	3010.975	-8.993563	-2.555428E-006	0.0061836	8
	8	12	158578.1	3007.227	-442.879	1	3039.664	-8.377817	3.308151E-006	0.0050638	8
	9	13	125953.1	3054.89	-395.5742	1	3080.395	-7.378109	-1.042646E-006	0.0078105	7
	10	15	100078.1	3084.15	-376.4066	1	3107.035	-6.958279	6.305312E-008	0.00555	7
	11	16	79453.13	3121.127	-382.2665	1	3144.449	-6.982644	-2.853438E-008	0.0056559	7
	12	17	63140.62	3157.139	-396.9799	1	3182	-7.166781	5.227038E-008	0.0054994	7
	13	19	50203.12	3199.771	-414.8805	1	3226.556	-7.387722	-4.145331E-008	0.0056337	7
	14	20	39890.62	3245.343	-443.452	1	3275.5	-7.780856	-2.86234E-008	0.0056477	7
	15	21	31640.63	3291.836	-479.9074	1	3326.635	-8.294554	8.623285E-008	0.0054668	7
	16	23	25171.88	3344.01	-525.424	1	3385.037	-8.92953	7.611174E-009	0.0056481	7
	17	24	20015.62	3400.509	-580.8152	1	3449.755	-9.69272	-2.699978E-008	0.0055844	7
	18	25	15890.62	3465.085	-645.268	1	3524.654	-10.54879	-2.806241E-008	0.0056466	7
	19	27	12609.37	3535.141	-721.8329	1	3608.083	-11.54046	-2.94017E-008	0.0056492	7
	20	28	10078.13	3611.111	-809.2225	1	3700.671	-12.63088	-9.020787E-009	0.0055848	7
	21	29	8015.625	3697.572	-914.6164	1	3809.01	-13.89357	9.003581E-009	0.0055624	7
	22	31	6328.125	3795.894	-1040.994	1	3936.048	-15.33588	1.547161E-008	0.0055133	7
	23	32	5015.625	3904.092	-1188.238	1	4080.912	-16.92799	-2.571365E-008	0.0055725	7
	24	33	3984.375	4026.205	-1356.18	1	4248.477	-18.6155	-5.771022E-008	0.0057514	7
	25	35	3170.956	4155.767	-1553.38	1	4436.597	-20.4952	-1.162893E-008	0.0056144	7
	26	36	2527.573	4302.876	-1780.721	1	4656.792	-22.48195	-5.48645E-008	0.0057565	7
	27	37	1976.103	4475.291	-2068.513	1	4930.21	-24.80674	-1.244466E-008	0.0056123	7
	28	39	1577.524	4648.522	-2384.03	1	5224.209	-27.15136	3.255519E-008	0.0055358	7
	29	40	1265.625	4834.57	-2745.485	1	5559.744	-29.59163	-2.468072E-008	0.0055722	7
	30	41	998.264	5042.999	-3209.553	1	5977.714	-32.4742	8.8372E-009	0.0056626	7
	31	43	796.875	5260.438	-3742.49	1	6455.883	-35.4296	5.128805E-008	0.005485	7
	32	44	627.7902	5499.282	-4440.572	1	7068.294	-38.92025	-5.644303E-008	0.005649	7
	33	45	505.5147	5724.18	-5209.004	1	7739.506	-42.30219	3.288899E-008	0.0055451	7
	34	47	397.9953	5995.65	-6271.765	1	8676.569	-46.28939	4.942724E-009	0.0055978	7
	35	48	315.5048	6288.2	-7559.816	1	9833.22	-50.24657	5.732896E-009	0.0055985	7
	36	49	252.4038	6612.388	-9096.633	1	11246	-53.98641	6.691114E-010	0.0055351	6
	37	51	198.6229	7021.618	-11151.83	1	13178.26	-57.80392	6.785165E-010	0.0055395	6
	38	52	158.3615	7499.327	-13570.14	1	15504.47	-61.07346	4.316607E-010	0.0055356	6
	39	53	125.558	8109.061	-16629.9	1	18501.63	-64.00524	6.95866E-010	0.0055428	6
	40	55	100.4464	8872.103	-20245.86	1	22104.5	-66.3361	1.089976E-009	0.0055344	6
	41	56	79.00281	9901.02	-25018.93	1	26906.82	-68.40926	8.587882E-010	0.0055373	6
	42	57	63.3446	11307.39	-30469.87	1	32500.3	-69.64008	3.701217E-010	0.0055346	6
	43	59	49.86702	12865.53	-37533.98	1	39677.72	-71.07982	7.298591E-010	0.0055385	6
	44	60	39.72458	15237.63	-45788.65	1	48257.49	-71.5935	5.776905E-010	0.0055436	6
	45	61	31.6723	18131.75	-55530.86	1	58416.07	-71.91727	3.184212E-010	0.0055361	6
	46	63	24.93351	22214.3	-68159.05	1	71687.73	-71.94825	3.694984E-010	0.0055355	6
	47	64	19.86229	27289.69	-82480.8	1	86878.13	-71.69263	8.916162E-010	0.005539	6
	48	65	15.83615	33480.29	-98837.6	1	104354.2	-71.28668	8.455939E-010	0.0055343	6
	49	67	12.40079	42907.09	-120219.4	1	127646.9	-70.35818	1.365774E-009	0.0055421	5
	50	68	9.93114	53027.22	-143641.9	1	153117.2	-69.73774	3.890685E-010	0.005544	5
	51	70	7.944915	65819.95	-170200.8	1	182484.4	-68.85754	8.093587E-010	0.005537	5
	52	71	6.317385	82179.09	-201963.8	1	218043.1	-67.85859	5.006823E-010	0.0055245	5
	53	73	5.008013	102577.7	-239243.4	1	260306.8	-66.79234	-6.566018E-011	0.0055358	5
	54	76	3.945707	128039.5	-282929.6	1	310553.2	-65.65092	3.068945E-010	0.0055473	5
	55	79	3.158693	156584.7	-330297	1	365533.7	-64.63566	-1.214536E-010	0.0055254	5
	56	82	2.504006	192304.2	-386057.7	1	431302	-63.52105	4.164164E-010	0.0055346	5
	57	85	1.998082	233317.9	-447842.3	1	504975.2	-62.48128	2.089637E-010	0.0055738	5
	58	88	1.584686	281663.9	-519164.9	1	590649.4	-61.51873	1.820916E-010	0.0055398	5
	59	91	1.266892	339390.3	-598584.9	1	688105.9	-60.4473	4.433655E-012	0.0055825	5
	60	96	0.999041	408242.6	-692617	1	803977.8	-59.48404	7.769693E-011	0.0055038	5
