EXPLAIN
TAG	EISPOT
TITLE	LABEL	Potentiostatic EIS	Test &Identifier
DATE	LABEL	9/22/2019	Date
TIME	LABEL	9:58:34	Time
NOTES	NOTES	1	&Notes...
	
PSTAT	PSTAT	REF600-11020	Potentiostat
VDC	POTEN	0.00000E+000	T	DC &Voltage (V)
FREQINIT	QUANT	1.00000E+006	Initial Fre&q. (Hz)
FREQFINAL	QUANT	1.00000E+000	Final Fre&q. (Hz)
PTSPERDEC	QUANT	1.00000E+001	Points/&decade
VAC	QUANT	2.50000E+001	AC &Voltage (mV rms)
AREA	QUANT	1.00000E-002	&Area (cm^2)
CONDIT	TWOPARAM	T	5.00000E+000	0.00000E+000	Conditionin&g	Time(s)	E(V)
DELAY	TWOPARAM	T	5.00000E+000	0.00000E+000	Init. De&lay	Time(s)	Stab.(mV/s)
SPEED	SELECTOR	1	&Optimize for:
ZGUESS	QUANT	1.00000E+004	E&stimated Z (ohms)
OCVCURVE	TABLE	19
	Pt	T	Vf	Vm	Ach	Over
	#	s	V vs. Ref.	V	V	bits
	0	0.258333	3.00624E-003	3.00624E-003	5.44166E-004	...........
	1	0.516667	3.00260E-003	2.81547E-003	5.46433E-004	...........
	2	0.775	2.97956E-003	2.60036E-003	5.45133E-004	...........
	3	1.03333	2.91318E-003	2.44363E-003	5.50766E-004	...........
	4	1.29167	2.79468E-003	2.31185E-003	5.46233E-004	...........
	5	1.55	2.64399E-003	2.27758E-003	5.48666E-004	...........
	6	1.80833	2.48916E-003	1.88564E-003	5.50033E-004	...........
	7	2.06667	2.33435E-003	1.77291E-003	5.48799E-004	...........
	8	2.325	2.16556E-003	1.63879E-003	5.47533E-004	...........
	9	2.58333	1.98497E-003	1.50549E-003	5.46766E-004	...........
	10	2.84167	1.81187E-003	1.38189E-003	5.55966E-004	...........
	11	3.1	1.65738E-003	1.25559E-003	5.45599E-004	...........
	12	3.35833	1.51907E-003	1.13322E-003	5.48299E-004	...........
	13	3.61667	1.39093E-003	1.04912E-003	5.51066E-004	...........
	14	3.875	1.27074E-003	9.59147E-004	5.47999E-004	...........
	15	4.13333	1.16000E-003	8.67504E-004	5.53599E-004	...........
	16	4.39167	1.05861E-003	7.56853E-004	5.54733E-004	...........
	17	4.65	9.62066E-004	6.48434E-004	5.47499E-004	...........
	18	4.90833	8.64715E-004	5.54463E-004	5.51133E-004	...........
EOC	QUANT	0.0008647	Open Circuit (V)
PSTATMODEL	IQUANT	4	Pstat Model
PSTATSECTION	LABEL	REF600-11020	Pstat Section
PSTATSERIALNO	LABEL	11020	Pstat Serial Number
CTRLMODE	IQUANT	1	Control Mode
IESTAB	IQUANT	0	I/E Stability
CASPEED	IQUANT	1	Control Amp Speed
CONVENTION	IQUANT	1	Current Convention
ICHRANGE	IQUANT	2	Ich Range
ICHRANGEMODE	TOGGLE	F	Ich Auto Range
ICHOFFSETENABLE	TOGGLE	T	Ich Offset Enable
ICHOFFSET	QUANT	0	Ich Offset (V)
ICHFILTER	IQUANT	3	Ich Filter
VCHRANGE	IQUANT	2	Vch Range
VCHRANGEMODE	TOGGLE	F	Vch Auto Range
VCHOFFSETENABLE	TOGGLE	T	Vch Offset Enable
VCHOFFSET	QUANT	0	Vch Offset (V)
VCHFILTER	IQUANT	3	Vch Filter
ACHRANGE	IQUANT	2	Ach Range
ACHOFFSETENABLE	TOGGLE	F	Ach Offset Enable
ACHOFFSET	QUANT	0	Ach Offset (V)
ACHFILTER	IQUANT	3	Ach Filter
IERANGELOWERLIMIT	IQUANT	1	I/E Range Lower Limit
IERANGEMODE	TOGGLE	F	I/E AutoRange
IERANGE	IQUANT	5	I/E Range
POSFEEDENABLE	TOGGLE	F	Positive Feedback IR Comp
POSFEEDRESISTANCE	QUANT	0	Positive Feedback Resistance (ohm)
ACHSELECT	IQUANT	0	Ach Select
CABLEID	IQUANT	14	Cable ID
DCCALDATE	LABEL	8/19/2019	DC Calibration Date
ACCALDATE	LABEL	8/19/2019	AC Calibration Date
THERMOSELECT	IQUANT	1	Thermo Select
FRAMEWORKVERSION	QUANT	6.33	Framework Version
INSTRUMENTVERSION	LABEL	3.50	Instrument Version
ZCURVE	TABLE
	Pt	Time	Freq	Zreal	Zimag	Zsig	Zmod	Zphz	Idc	Vdc	IERange
	#	s	Hz	ohm	ohm	V	ohm	°	A	V	#
	0	2	1000078	2325.103	-1954.593	1	3037.522	-40.05202	-1.775367E-006	0.0032607	8
	1	3	794390.6	2723.704	-1947.591	1	3348.384	-35.56676	9.203034E-007	0.0029125	8
	2	5	630984.4	3110.639	-1863.893	1	3626.316	-30.93002	-4.395322E-008	0.002567	8
	3	6	501234.4	3466.094	-1722.918	1	3870.692	-26.43095	-3.671327E-006	0.0032245	8
	4	8	398109.4	3763.052	-1534.105	1	4063.747	-22.17953	3.502829E-007	0.0024939	8
	5	9	316265.6	3965.604	-1361.514	1	4192.82	-18.94892	8.049628E-007	0.0021936	8
	6	10	251203.1	4150.261	-1173.889	1	4313.083	-15.79339	-3.351043E-006	0.0030563	8
	7	12	199546.9	4296.813	-1014.833	1	4415.03	-13.28876	1.75761E-007	0.0022101	8
	8	13	158578.1	4384.317	-895.35	1	4474.806	-11.54204	-1.980538E-006	0.002665	8
	9	15	125953.1	4493.243	-701.763	1	4547.714	-8.876847	1.191024E-006	0.0002229	7
	10	16	100078.1	4539.345	-612.9877	1	4580.547	-7.690631	-4.693688E-008	0.0025048	7
	11	17	79453.13	4587.313	-548.6439	1	4620.005	-6.820196	5.64372E-009	0.0024338	7
	12	19	63140.62	4629.284	-501.743	1	4656.395	-6.185832	-3.240677E-008	0.0024234	7
	13	20	50203.12	4665.547	-467.1031	1	4688.871	-5.717262	7.76301E-008	0.0022881	7
	14	21	39890.62	4699.336	-448.652	1	4720.705	-5.453576	-1.850958E-008	0.0023717	7
	15	23	31640.63	4733.065	-441.5996	1	4753.621	-5.330321	-2.088582E-009	0.0023672	7
	16	24	25171.88	4766.46	-447.4192	1	4787.413	-5.36254	2.16982E-009	0.0022601	7
	17	26	20015.62	4802.75	-463.8812	1	4825.101	-5.51689	4.065787E-008	0.0022766	7
	18	27	15890.62	4838.782	-492.3221	1	4863.763	-5.80957	-3.135507E-008	0.0023294	7
	19	28	12609.37	4877.748	-535.476	1	4907.052	-6.264807	-3.224268E-008	0.0023275	7
	20	30	10078.13	4917.277	-593.1985	1	4952.929	-6.878669	-4.669778E-008	0.0024934	7
	21	31	8015.625	4959.012	-664.214	1	5003.297	-7.628838	7.828802E-008	0.0021634	7
	22	32	6328.125	5008.358	-759.8083	1	5065.665	-8.626452	4.233778E-008	0.002196	7
	23	34	5015.625	5061.933	-877.7431	1	5137.47	-9.83732	7.899121E-008	0.0021665	7
	24	35	3984.375	5118.515	-1023.127	1	5219.768	-11.30373	-3.646202E-008	0.0023347	7
	25	36	3170.956	5182.186	-1201.812	1	5319.718	-13.05678	-4.588362E-008	0.0024845	7
	26	38	2527.573	5253.046	-1417.836	1	5441.025	-15.10463	1.25853E-008	0.0022587	7
	27	39	1976.103	5341.078	-1704.379	1	5606.427	-17.69829	3.885671E-009	0.0022574	7
	28	40	1577.524	5432.396	-2031.207	1	5799.718	-20.50109	7.972413E-008	0.0021606	7
	29	42	1265.625	5528.521	-2393.944	1	6024.576	-23.41343	7.136205E-008	0.002201	7
	30	43	998.264	5661.73	-2924.713	1	6372.529	-27.31978	1.254136E-008	0.0022545	7
	31	44	796.875	5804.09	-3515.167	1	6785.563	-31.20061	1.219261E-007	0.0021507	7
	32	46	627.7902	5971.28	-4281.691	1	7347.726	-35.64232	-3.171694E-008	0.0023306	7
	33	47	505.5147	6148.733	-5136.912	1	8012.165	-39.87681	-5.29996E-008	0.0023721	7
	34	49	397.9953	6376.476	-6300.107	1	8963.86	-44.65483	4.652916E-009	0.0023485	7
	35	50	315.5048	6641.283	-7697.412	1	10166.45	-49.21256	1.081622E-009	0.0022842	6
	36	51	252.4038	6944.185	-9353.069	1	11649.1	-53.40797	5.038548E-010	0.0022813	6
	37	53	198.6229	7340.799	-11551.45	1	13686.61	-57.56456	1.237201E-009	0.0022821	6
	38	54	158.3615	7809.893	-14124.76	1	16140.11	-61.06082	1.369488E-009	0.0022789	6
	39	55	125.558	8414.885	-17366.26	1	19297.6	-64.14732	1.148004E-009	0.0022844	6
	40	57	100.4464	9146.362	-21207.54	1	23095.8	-66.67049	7.752037E-010	0.0022813	6
	41	58	79.00281	10232.06	-26243.79	1	28167.92	-68.69994	5.339971E-010	0.0022768	6
	42	60	63.3446	11633.97	-32138.55	1	34179.46	-70.10003	9.939551E-010	0.0022777	6
	43	61	49.86702	13082.74	-39514.2	1	41623.67	-71.68083	7.782586E-011	0.0022761	6
	44	62	39.72458	15500.18	-48316.03	1	50741.45	-72.21333	8.089683E-010	0.0022746	6
	45	64	31.6723	18496.93	-58998.83	1	61830.4	-72.59309	1.574652E-010	0.0022791	6
	46	65	24.93351	22668.61	-72290.82	1	75761.66	-72.58987	5.551282E-010	0.0022767	6
	47	67	19.86229	27830.37	-87629.89	1	91943.06	-72.38068	1.127506E-009	0.0022835	6
	48	68	15.83615	35423.64	-105766.3	1	111540.8	-71.48309	1.750125E-009	0.002278	5
	49	69	12.40079	43474.67	-128868.2	1	136003.9	-71.35778	4.319603E-010	0.0022757	5
	50	71	9.93114	55309.56	-153755	1	163400.6	-70.21506	3.846275E-010	0.0022813	5
	51	72	7.944915	69563.77	-182551.9	1	195356.9	-69.14001	9.911469E-010	0.0022769	5
	52	74	6.317385	88250.54	-216721.2	1	234000.5	-67.84347	5.876107E-010	0.0022971	5
	53	76	5.008013	111735.1	-256092.7	1	279406.9	-66.428	6.467596E-010	0.0022933	5
	54	79	3.945707	141157.9	-302559.9	1	333868.3	-64.98882	2.263892E-010	0.0022756	5
	55	81	3.158693	174656.6	-350503.8	1	391609.3	-63.51286	4.447772E-010	0.0022998	5
	56	85	2.504006	217044.2	-407356.6	1	461570.8	-61.9508	2.078581E-010	0.0022713	5
	57	87	1.998082	265047	-467477.8	1	537387.6	-60.44796	3.419577E-012	0.0022875	5
	58	90	1.584686	323859.4	-535463.1	1	625784.1	-58.83356	5.341953E-010	0.0023329	5
	59	94	1.266892	388246.8	-605858	1	719582.9	-57.34738	-2.461027E-011	0.0022998	5
	60	98	0.999041	464678.2	-687266.5	1	829615	-55.93638	5.265364E-010	0.0022846	5
