EXPLAIN
TAG	EISPOT
TITLE	LABEL	Potentiostatic EIS	Test &Identifier
DATE	LABEL	10/24/2019	Date
TIME	LABEL	10:27:59	Time
NOTES	NOTES	1	&Notes...
	
PSTAT	PSTAT	REF600-11020	Potentiostat
VDC	POTEN	0.00000E+000	T	DC &Voltage (V)
FREQINIT	QUANT	1.00000E+006	Initial Fre&q. (Hz)
FREQFINAL	QUANT	1.00000E+000	Final Fre&q. (Hz)
PTSPERDEC	QUANT	1.00000E+001	Points/&decade
VAC	QUANT	2.50000E+001	AC &Voltage (mV rms)
AREA	QUANT	1.00000E-002	&Area (cm^2)
CONDIT	TWOPARAM	T	5.00000E+000	0.00000E+000	Conditionin&g	Time(s)	E(V)
DELAY	TWOPARAM	T	5.00000E+000	0.00000E+000	Init. De&lay	Time(s)	Stab.(mV/s)
SPEED	SELECTOR	1	&Optimize for:
ZGUESS	QUANT	1.00000E+005	E&stimated Z (ohms)
OCVCURVE	TABLE	19
	Pt	T	Vf	Vm	Ach	Over
	#	s	V vs. Ref.	V	V	bits
	0	0.258333	6.69572E-003	6.69572E-003	5.62766E-004	...........
	1	0.516667	6.69605E-003	6.71320E-003	5.61266E-004	...........
	2	0.775	6.69871E-003	6.76183E-003	5.53032E-004	...........
	3	1.03333	6.70757E-003	6.77112E-003	5.55333E-004	...........
	4	1.29167	6.73439E-003	7.31118E-003	5.56999E-004	...........
	5	1.55	6.79422E-003	6.61942E-003	5.56499E-004	...........
	6	1.80833	6.86096E-003	6.65740E-003	5.63766E-004	...........
	7	2.06667	6.87094E-003	6.65115E-003	5.60966E-004	...........
	8	2.325	6.81153E-003	6.70135E-003	5.56966E-004	...........
	9	2.58333	6.73782E-003	6.71809E-003	5.56466E-004	...........
	10	2.84167	6.69671E-003	6.73795E-003	5.53933E-004	...........
	11	3.1	6.69836E-003	7.05745E-003	5.60366E-004	...........
	12	3.35833	6.73931E-003	6.79439E-003	5.56399E-004	...........
	13	3.61667	6.79961E-003	6.78597E-003	5.56666E-004	...........
	14	3.875	6.84054E-003	6.81736E-003	5.58032E-004	...........
	15	4.13333	6.85375E-003	7.29572E-003	5.62499E-004	...........
	16	4.39167	6.87748E-003	6.79572E-003	5.63766E-004	...........
	17	4.65	6.92272E-003	6.83610E-003	5.61632E-004	...........
	18	4.90833	6.94680E-003	6.90282E-003	5.58899E-004	...........
EOC	QUANT	0.0069468	Open Circuit (V)
PSTATMODEL	IQUANT	4	Pstat Model
PSTATSECTION	LABEL	REF600-11020	Pstat Section
PSTATSERIALNO	LABEL	11020	Pstat Serial Number
CTRLMODE	IQUANT	1	Control Mode
IESTAB	IQUANT	0	I/E Stability
CASPEED	IQUANT	1	Control Amp Speed
CONVENTION	IQUANT	1	Current Convention
ICHRANGE	IQUANT	2	Ich Range
ICHRANGEMODE	TOGGLE	F	Ich Auto Range
ICHOFFSETENABLE	TOGGLE	T	Ich Offset Enable
ICHOFFSET	QUANT	0	Ich Offset (V)
ICHFILTER	IQUANT	3	Ich Filter
VCHRANGE	IQUANT	2	Vch Range
VCHRANGEMODE	TOGGLE	F	Vch Auto Range
VCHOFFSETENABLE	TOGGLE	T	Vch Offset Enable
VCHOFFSET	QUANT	0	Vch Offset (V)
VCHFILTER	IQUANT	3	Vch Filter
ACHRANGE	IQUANT	2	Ach Range
ACHOFFSETENABLE	TOGGLE	F	Ach Offset Enable
ACHOFFSET	QUANT	0	Ach Offset (V)
ACHFILTER	IQUANT	3	Ach Filter
IERANGELOWERLIMIT	IQUANT	1	I/E Range Lower Limit
IERANGEMODE	TOGGLE	F	I/E AutoRange
IERANGE	IQUANT	5	I/E Range
POSFEEDENABLE	TOGGLE	F	Positive Feedback IR Comp
POSFEEDRESISTANCE	QUANT	0	Positive Feedback Resistance (ohm)
ACHSELECT	IQUANT	0	Ach Select
CABLEID	IQUANT	14	Cable ID
DCCALDATE	LABEL	8/19/2019	DC Calibration Date
ACCALDATE	LABEL	8/19/2019	AC Calibration Date
THERMOSELECT	IQUANT	1	Thermo Select
FRAMEWORKVERSION	QUANT	6.33	Framework Version
INSTRUMENTVERSION	LABEL	3.50	Instrument Version
ZCURVE	TABLE
	Pt	Time	Freq	Zreal	Zimag	Zsig	Zmod	Zphz	Idc	Vdc	IERange
	#	s	Hz	ohm	ohm	V	ohm	°	A	V	#
	0	1	1000078	2413.816	-1965.358	1	3112.738	-39.15289	-4.057962E-006	0.0097671	8
	1	3	794390.6	2803.767	-1984.719	1	3435.145	-35.29375	3.717665E-006	0.0085066	8
	2	4	630984.4	3169.265	-1899.851	1	3695.088	-30.94104	-4.416393E-006	0.0096534	8
	3	5	501234.4	3514.678	-1813.479	1	3954.956	-27.29252	5.512311E-007	0.0087662	8
	4	7	398109.4	3812.057	-1695.13	1	4171.959	-23.97356	-2.019468E-007	0.0087202	8
	5	8	316265.6	4073.473	-1554.529	1	4360.016	-20.88797	-2.23926E-006	0.0089143	8
	6	10	251203.1	4274.718	-1410.806	1	4501.509	-18.26469	-8.211316E-007	0.0087548	8
	7	11	199546.9	4463.064	-1294.24	1	4646.934	-16.17158	-3.528651E-006	0.0094002	8
	8	12	158578.1	4616.228	-1163.271	1	4760.542	-14.14383	-2.564809E-007	0.0086988	8
	9	14	125953.1	4763.08	-1012.332	1	4869.471	-11.99895	-4.24931E-007	0.008859	7
	10	15	100078.1	4878.63	-962.094	1	4972.591	-11.15591	-1.641866E-008	0.0085161	7
	11	17	79453.13	4975.166	-917.2757	1	5059.019	-10.44636	-1.79798E-008	0.0085108	7
	12	18	63140.62	5066.848	-889.9085	1	5144.403	-9.96146	6.548781E-008	0.0083778	7
	13	19	50203.12	5152.435	-878.7884	1	5226.84	-9.67911	6.69224E-008	0.0083786	7
	14	21	39890.62	5235.99	-889.7061	1	5311.042	-9.64366	5.781802E-008	0.008419	7
	15	22	31640.63	5325.865	-918.7206	1	5404.524	-9.7873	-2.715294E-008	0.0085151	7
	16	23	25171.88	5414.54	-966.511	1	5500.126	-10.12086	-2.447129E-008	0.0085142	7
	17	25	20015.62	5511.488	-1036.948	1	5608.187	-10.65524	-2.897817E-008	0.008546	7
	18	26	15890.62	5617.162	-1125.546	1	5728.819	-11.33066	-7.748732E-009	0.008625	7
	19	27	12609.37	5734.85	-1236.508	1	5866.64	-12.16745	5.740391E-008	0.0084175	7
	20	29	10078.13	5845.317	-1383.009	1	6006.7	-13.31146	-3.42461E-008	0.0085347	7
	21	30	8015.625	6015.591	-1530.167	1	6207.153	-14.27149	-4.115902E-009	0.0085229	7
	22	32	6328.125	6175.451	-1725.56	1	6412	-15.61156	-4.22586E-008	0.008645	7
	23	33	5015.625	6362.625	-1950.15	1	6654.778	-17.04035	6.981464E-008	0.008363	7
	24	34	3984.375	6595.158	-2224.389	1	6960.174	-18.63802	-2.541053E-008	0.0085316	7
	25	36	3170.956	6812.327	-2502.082	1	7257.287	-20.16765	6.972699E-008	0.0083683	7
	26	37	2527.573	7079.929	-2841.198	1	7628.749	-21.86574	-3.000914E-009	0.0085439	7
	27	38	1976.103	7405.677	-3260.181	1	8091.528	-23.7604	-3.560051E-008	0.0085273	7
	28	39	1577.524	7694.22	-3729.41	1	8550.411	-25.8596	-1.315932E-008	0.0085507	7
	29	41	1265.625	8098.564	-4175.606	1	9111.664	-27.27556	-7.404012E-009	0.0086207	7
	30	42	998.264	8506.455	-4765.474	1	9750.36	-29.25836	5.501979E-009	0.0082733	6
	31	43	796.875	8910.009	-5435.083	1	10436.88	-31.38308	6.246968E-009	0.0083156	6
	32	45	627.7902	9355.482	-6283.598	1	11269.81	-33.88723	5.760851E-009	0.008322	6
	33	46	505.5147	9765.26	-7217.498	1	12143.01	-36.46807	3.093585E-009	0.0083453	6
	34	47	397.9953	10234.84	-8488.115	1	13296.62	-39.6701	-1.120489E-010	0.0084694	6
	35	49	315.5048	10706.96	-10026.32	1	14668.54	-43.11977	1.085271E-009	0.0084662	6
	36	50	252.4038	11190.87	-11869.94	1	16313.53	-46.6867	7.09202E-010	0.0084699	6
	37	52	198.6229	11762.27	-14353.04	1	18556.96	-50.66549	6.740371E-010	0.0084736	6
	38	53	158.3615	12387.79	-17292	1	21271.36	-54.38262	1.135527E-009	0.0084658	6
	39	54	125.558	13151.53	-21036.94	1	24809.59	-57.98786	8.057592E-010	0.0084655	6
	40	56	100.4464	14054.49	-25521.45	1	29135.42	-61.15872	-1.548527E-010	0.0084642	6
	41	57	79.00281	15344.96	-31471.93	1	35013.57	-64.00724	9.972752E-012	0.0084671	6
	42	58	63.3446	16303.51	-38040.74	1	41387.23	-66.80099	6.63601E-010	0.0084624	6
	43	60	49.86702	19101.54	-47040.53	1	50770.86	-67.89962	3.454327E-010	0.008459	6
	44	61	39.72458	21317.59	-57588.27	1	61407.23	-69.68684	9.403306E-011	0.0084648	6
	45	62	31.6723	24602.96	-70021.7	1	74218.22	-70.64046	7.31705E-011	0.0084629	6
	46	64	24.93351	29446.41	-86337.51	1	91220.92	-71.16746	5.615354E-010	0.0084632	6
	47	65	19.86229	35325.04	-105036.3	1	110817.3	-71.41155	-4.289781E-010	0.008465	5
	48	66	15.83615	45043.62	-126763.5	1	134528.5	-70.43805	1.90626E-009	0.0084638	5
	49	68	12.40079	55199.21	-156035.4	1	165511.3	-70.51821	-4.630993E-010	0.0084697	5
	50	69	9.93114	68865.24	-186182.8	1	198510.6	-69.70159	-2.090537E-010	0.0084697	5
	51	71	7.944915	86830.42	-221382.2	1	237801.6	-68.58392	-4.610115E-010	0.0084703	5
	52	72	6.317385	111556.5	-263576.1	1	286211.8	-67.05988	-3.174506E-010	0.0084785	5
	53	74	5.008013	142710.6	-310994.2	1	342175	-65.35031	4.142863E-010	0.0084799	5
	54	77	3.945707	183632.7	-363938.7	1	407642.4	-63.22583	-3.069646E-011	0.0084636	5
	55	79	3.158693	230431.5	-418553.2	1	477792.3	-61.16533	8.270084E-011	0.0084615	5
	56	83	2.504006	287014.4	-478027.5	1	557572.9	-59.0188	6.131212E-011	0.0084737	5
	57	85	1.998082	348836.9	-536940.6	1	640306.5	-56.98923	3.869875E-010	0.0084601	5
	58	88	1.584686	422709.3	-601450.7	1	735136.8	-54.89983	3.298732E-011	0.008417	5
	59	92	1.266892	494159	-668421.5	1	831252.3	-53.52476	3.138867E-010	0.0084692	5
	60	96	0.999041	581898.3	-744705.1	1	945087.9	-51.99661	-1.318415E-010	0.0084391	5
