EXPLAIN
TAG	EISPOT
TITLE	LABEL	Potentiostatic EIS	Test &Identifier
DATE	LABEL	10/12/2019	Date
TIME	LABEL	11:23:08	Time
NOTES	NOTES	1	&Notes...
	
PSTAT	PSTAT	REF600-11020	Potentiostat
VDC	POTEN	0.00000E+000	T	DC &Voltage (V)
FREQINIT	QUANT	1.00000E+006	Initial Fre&q. (Hz)
FREQFINAL	QUANT	1.00000E+000	Final Fre&q. (Hz)
PTSPERDEC	QUANT	1.00000E+001	Points/&decade
VAC	QUANT	2.50000E+001	AC &Voltage (mV rms)
AREA	QUANT	1.00000E-002	&Area (cm^2)
CONDIT	TWOPARAM	T	5.00000E+000	0.00000E+000	Conditionin&g	Time(s)	E(V)
DELAY	TWOPARAM	T	5.00000E+000	0.00000E+000	Init. De&lay	Time(s)	Stab.(mV/s)
SPEED	SELECTOR	1	&Optimize for:
ZGUESS	QUANT	1.00000E+004	E&stimated Z (ohms)
OCVCURVE	TABLE	19
	Pt	T	Vf	Vm	Ach	Over
	#	s	V vs. Ref.	V	V	bits
	0	0.258333	5.73978E-003	5.73978E-003	5.91699E-004	...........
	1	0.516667	5.73774E-003	5.63317E-003	5.93465E-004	...........
	2	0.775	5.72558E-003	5.55021E-003	5.81332E-004	...........
	3	1.03333	5.69254E-003	5.48179E-003	5.80065E-004	...........
	4	1.29167	5.63675E-003	5.42428E-003	5.96765E-004	...........
	5	1.55	5.56831E-003	5.38405E-003	5.88699E-004	...........
	6	1.80833	5.50038E-003	5.34699E-003	5.86765E-004	...........
	7	2.06667	5.44119E-003	5.31604E-003	5.86732E-004	...........
	8	2.325	5.39286E-003	5.29277E-003	5.91199E-004	...........
	9	2.58333	5.35426E-003	5.28335E-003	5.91399E-004	...........
	10	2.84167	5.32397E-003	5.26341E-003	5.85399E-004	...........
	11	3.1	5.30061E-003	5.25169E-003	5.89899E-004	...........
	12	3.35833	5.28200E-003	5.22988E-003	5.95565E-004	...........
	13	3.61667	5.26440E-003	5.15422E-003	5.91632E-004	...........
	14	3.875	5.24104E-003	5.07615E-003	5.89332E-004	...........
	15	4.13333	5.20567E-003	5.09146E-003	6.02065E-004	...........
	16	4.39167	5.16266E-003	5.12294E-003	6.03432E-004	...........
	17	4.65	5.12875E-003	5.18899E-003	5.84599E-004	...........
	18	4.90833	5.11913E-003	5.19603E-003	5.91665E-004	...........
EOC	QUANT	0.0051191	Open Circuit (V)
PSTATMODEL	IQUANT	4	Pstat Model
PSTATSECTION	LABEL	REF600-11020	Pstat Section
PSTATSERIALNO	LABEL	11020	Pstat Serial Number
CTRLMODE	IQUANT	1	Control Mode
IESTAB	IQUANT	0	I/E Stability
CASPEED	IQUANT	1	Control Amp Speed
CONVENTION	IQUANT	1	Current Convention
ICHRANGE	IQUANT	2	Ich Range
ICHRANGEMODE	TOGGLE	F	Ich Auto Range
ICHOFFSETENABLE	TOGGLE	T	Ich Offset Enable
ICHOFFSET	QUANT	0	Ich Offset (V)
ICHFILTER	IQUANT	3	Ich Filter
VCHRANGE	IQUANT	2	Vch Range
VCHRANGEMODE	TOGGLE	F	Vch Auto Range
VCHOFFSETENABLE	TOGGLE	T	Vch Offset Enable
VCHOFFSET	QUANT	0	Vch Offset (V)
VCHFILTER	IQUANT	3	Vch Filter
ACHRANGE	IQUANT	2	Ach Range
ACHOFFSETENABLE	TOGGLE	F	Ach Offset Enable
ACHOFFSET	QUANT	0	Ach Offset (V)
ACHFILTER	IQUANT	3	Ach Filter
IERANGELOWERLIMIT	IQUANT	1	I/E Range Lower Limit
IERANGEMODE	TOGGLE	F	I/E AutoRange
IERANGE	IQUANT	5	I/E Range
POSFEEDENABLE	TOGGLE	F	Positive Feedback IR Comp
POSFEEDRESISTANCE	QUANT	0	Positive Feedback Resistance (ohm)
ACHSELECT	IQUANT	0	Ach Select
CABLEID	IQUANT	14	Cable ID
DCCALDATE	LABEL	8/19/2019	DC Calibration Date
ACCALDATE	LABEL	8/19/2019	AC Calibration Date
THERMOSELECT	IQUANT	1	Thermo Select
FRAMEWORKVERSION	QUANT	6.33	Framework Version
INSTRUMENTVERSION	LABEL	3.50	Instrument Version
ZCURVE	TABLE
	Pt	Time	Freq	Zreal	Zimag	Zsig	Zmod	Zphz	Idc	Vdc	IERange
	#	s	Hz	ohm	ohm	V	ohm	°	A	V	#
	0	2	1000078	2124.74	-982.572	1	2340.934	-24.81787	1.386151E-006	0.0071447	8
	1	3	794390.6	2284.409	-907.4723	1	2458.054	-21.66525	2.261772E-006	0.006308	8
	2	5	630984.4	2413.367	-815.5499	1	2547.442	-18.67167	-1.008397E-006	0.0067069	8
	3	6	501234.4	2514.858	-729.5865	1	2618.551	-16.17799	-1.223212E-006	0.0068662	8
	4	7	398109.4	2598.178	-658.4886	1	2680.324	-14.22173	-4.098419E-006	0.0073705	8
	5	9	316265.6	2678.156	-593.0435	1	2743.031	-12.48594	2.5776E-008	0.0065178	8
	6	10	251203.1	2749.076	-545.5438	1	2802.684	-11.22431	-1.901133E-006	0.0069605	8
	7	12	199546.9	2802.671	-509.2316	1	2848.558	-10.29802	-1.2634E-006	0.0067847	8
	8	13	158578.1	2849.039	-482.1118	1	2889.542	-9.60455	-1.909612E-006	0.006966	8
	9	14	125953.1	2901.448	-444.3518	1	2935.276	-8.707099	3.328671E-007	0.0065369	7
	10	16	100078.1	2944.79	-436.8383	1	2977.015	-8.437881	-4.659618E-008	0.0066117	7
	11	17	79453.13	2990.435	-450.3373	1	3024.153	-8.563969	-7.143863E-008	0.0066288	7
	12	18	63140.62	3038.789	-472.7187	1	3075.338	-8.84215	-3.126287E-008	0.0066157	7
	13	20	50203.12	3093.317	-495.9929	1	3132.829	-9.109459	-1.438557E-008	0.0065115	7
	14	21	39890.62	3155.502	-526.0291	1	3199.047	-9.464302	-3.377415E-008	0.0066241	7
	15	22	31640.63	3213.383	-570.61	1	3263.652	-10.06922	-2.549642E-008	0.0066117	7
	16	24	25171.88	3284.825	-609.5977	1	3340.911	-10.51334	9.933465E-008	0.0064614	7
	17	25	20015.62	3355.87	-668.2136	1	3421.75	-11.26132	-3.273081E-009	0.0064955	7
	18	27	15890.62	3436.092	-725.4091	1	3511.83	-11.92093	-4.83324E-008	0.0066261	7
	19	28	12609.37	3510.61	-799.4557	1	3600.488	-12.82894	-1.408865E-008	0.0065204	7
	20	29	10078.13	3603.637	-880.8555	1	3709.732	-13.73576	-1.894808E-009	0.0064791	7
	21	31	8015.625	3697.077	-967.896	1	3821.675	-14.6708	-7.399368E-008	0.0067522	7
	22	32	6328.125	3796.243	-1087.495	1	3948.938	-15.98522	-7.094325E-008	0.0066473	7
	23	33	5015.625	3907.761	-1227.8	1	4096.106	-17.44247	-3.128474E-008	0.0066089	7
	24	35	3984.375	4026.003	-1377.493	1	4255.137	-18.88832	7.162615E-008	0.0063882	7
	25	36	3170.956	4142.51	-1585.493	1	4435.558	-20.94372	2.103333E-008	0.0064931	7
	26	37	2527.573	4258.47	-1801.28	1	4623.762	-22.92776	6.192952E-008	0.0064303	7
	27	39	1976.103	4398.266	-2098.472	1	4873.225	-25.50644	-1.282287E-008	0.0065688	7
	28	40	1577.524	4515.58	-2450.552	1	5137.671	-28.48816	2.868592E-008	0.0064997	7
	29	42	1265.625	4653.797	-2852.335	1	5458.355	-31.50434	-6.665206E-008	0.0067417	7
	30	43	998.264	4809.96	-3401.026	1	5890.899	-35.26336	-6.311356E-008	0.0067384	7
	31	44	796.875	4975.642	-4075.436	1	6431.655	-39.32013	1.819855E-008	0.0066186	7
	32	46	627.7902	5186.015	-4914.369	1	7144.632	-43.45943	-3.104859E-008	0.0066006	7
	33	47	505.5147	5424.551	-5885.911	1	8004.355	-47.33583	-2.083006E-008	0.0065108	7
	34	48	397.9953	5712.71	-7239.49	1	9222	-51.72289	6.038004E-009	0.0065457	7
	35	50	315.5048	6093.799	-8831.021	1	10729.46	-55.39259	-2.684007E-010	0.0064861	6
	36	51	252.4038	6558.668	-10710.47	1	12559.08	-58.51836	2.252144E-009	0.0064866	6
	37	53	198.6229	7205.035	-13181.02	1	15021.71	-61.33801	1.033654E-009	0.0064858	6
	38	54	158.3615	8013.81	-16010.17	1	17903.82	-63.40998	-1.655251E-010	0.0064867	6
	39	55	125.558	9085.609	-19542.62	1	21551.39	-65.06569	7.56801E-010	0.0064883	6
	40	57	100.4464	10476.68	-23630.75	1	25849.05	-66.08991	2.426068E-009	0.0064779	6
	41	58	79.00281	12287.46	-28800.88	1	31312.49	-66.89521	2.226144E-009	0.006479	6
	42	59	63.3446	14927.55	-33863.07	1	37007.29	-66.21111	8.083057E-010	0.0064777	6
	43	61	49.86702	18356.97	-42206.84	1	46026.03	-66.49438	1.506912E-009	0.0064758	6
	44	62	39.72458	22145.47	-49914.26	1	54606.37	-66.07456	1.264621E-010	0.0064817	6
	45	64	31.6723	27191.13	-59123.86	1	65076.79	-65.30225	7.580995E-010	0.0064807	6
	46	65	24.93351	34173.65	-69961.66	1	77861.88	-63.96622	4.434345E-011	0.006481	6
	47	67	19.86229	42289.08	-81440.19	1	91765.3	-62.5587	7.641383E-010	0.0064882	6
	48	68	15.83615	53822.89	-94701.95	1	108928.2	-60.3887	3.519606E-009	0.0064829	5
	49	69	12.40079	64851.22	-110291.9	1	127945.2	-59.54463	1.980405E-009	0.0064929	5
	50	71	9.93114	76722.82	-124283.5	1	146057.4	-58.31209	5.037348E-010	0.0064952	5
	51	72	7.944915	92357.13	-138491.9	1	166462.8	-56.30158	1.168561E-009	0.0064909	5
	52	74	6.317385	107665.5	-157294.9	1	190613.6	-55.60906	-1.63761E-010	0.0064813	5
	53	76	5.008013	124556.1	-177621.8	1	216941.8	-54.96019	-1.144433E-010	0.0064872	5
	54	79	3.945707	142734.7	-201516.3	1	246945.4	-54.68992	9.011254E-011	0.0064856	5
	55	82	3.158693	161125.8	-228660.3	1	279726.8	-54.82951	1.719655E-010	0.0064847	5
	56	85	2.504006	181090.7	-262550	1	318945.7	-55.4045	-1.483192E-010	0.0064929	5
	57	88	1.998082	202051.6	-302059.7	1	363407.4	-56.22093	1.807323E-010	0.0064427	5
	58	91	1.584686	225502.5	-352244.3	1	418243.2	-57.37313	-6.805614E-012	0.006478	5
	59	94	1.266892	253107.1	-410759.4	1	482479.5	-58.35891	8.745746E-011	0.0064445	5
	60	99	0.999041	286640	-485497.8	1	563800.1	-59.44221	1.038516E-010	0.00653	5
