EXPLAIN
TAG	EISPOT
TITLE	LABEL	Potentiostatic EIS	Test &Identifier
DATE	LABEL	10/10/2019	Date
TIME	LABEL	9:43:21	Time
NOTES	NOTES	1	&Notes...
	
PSTAT	PSTAT	REF600-11020	Potentiostat
VDC	POTEN	0.00000E+000	T	DC &Voltage (V)
FREQINIT	QUANT	1.00000E+006	Initial Fre&q. (Hz)
FREQFINAL	QUANT	1.00000E+000	Final Fre&q. (Hz)
PTSPERDEC	QUANT	1.00000E+001	Points/&decade
VAC	QUANT	2.50000E+001	AC &Voltage (mV rms)
AREA	QUANT	1.00000E-002	&Area (cm^2)
CONDIT	TWOPARAM	T	5.00000E+000	0.00000E+000	Conditionin&g	Time(s)	E(V)
DELAY	TWOPARAM	T	5.00000E+000	0.00000E+000	Init. De&lay	Time(s)	Stab.(mV/s)
SPEED	SELECTOR	1	&Optimize for:
ZGUESS	QUANT	1.00000E+004	E&stimated Z (ohms)
OCVCURVE	TABLE	19
	Pt	T	Vf	Vm	Ach	Over
	#	s	V vs. Ref.	V	V	bits
	0	0.258333	6.53227E-003	6.53227E-003	5.21533E-004	...........
	1	0.516667	6.53119E-003	6.47560E-003	5.27400E-004	...........
	2	0.775	6.52454E-003	6.42195E-003	5.24133E-004	...........
	3	1.03333	6.50616E-003	6.39225E-003	5.20833E-004	...........
	4	1.29167	6.47548E-003	6.38395E-003	5.26000E-004	...........
	5	1.55	6.44033E-003	6.37308E-003	5.27433E-004	...........
	6	1.80833	6.41036E-003	6.37798E-003	5.27700E-004	...........
	7	2.06667	6.39035E-003	6.37124E-003	5.25033E-004	...........
	8	2.325	6.37948E-003	6.36606E-003	5.28666E-004	...........
	9	2.58333	6.37407E-003	6.36724E-003	5.25266E-004	...........
	10	2.84167	6.37122E-003	6.38377E-003	5.16366E-004	...........
	11	3.1	6.37069E-003	6.38042E-003	5.22500E-004	...........
	12	3.35833	6.37299E-003	6.38888E-003	5.22033E-004	...........
	13	3.61667	6.37748E-003	6.40157E-003	5.25400E-004	...........
	14	3.875	6.38349E-003	6.41166E-003	5.27000E-004	...........
	15	4.13333	6.39130E-003	6.42938E-003	5.21833E-004	...........
	16	4.39167	6.40130E-003	6.44214E-003	5.25633E-004	...........
	17	4.65	6.41291E-003	6.43087E-003	5.28233E-004	...........
	18	4.90833	6.42298E-003	6.39772E-003	5.23200E-004	...........
EOC	QUANT	0.006423	Open Circuit (V)
PSTATMODEL	IQUANT	4	Pstat Model
PSTATSECTION	LABEL	REF600-11020	Pstat Section
PSTATSERIALNO	LABEL	11020	Pstat Serial Number
CTRLMODE	IQUANT	1	Control Mode
IESTAB	IQUANT	0	I/E Stability
CASPEED	IQUANT	1	Control Amp Speed
CONVENTION	IQUANT	1	Current Convention
ICHRANGE	IQUANT	2	Ich Range
ICHRANGEMODE	TOGGLE	F	Ich Auto Range
ICHOFFSETENABLE	TOGGLE	T	Ich Offset Enable
ICHOFFSET	QUANT	0	Ich Offset (V)
ICHFILTER	IQUANT	3	Ich Filter
VCHRANGE	IQUANT	2	Vch Range
VCHRANGEMODE	TOGGLE	F	Vch Auto Range
VCHOFFSETENABLE	TOGGLE	T	Vch Offset Enable
VCHOFFSET	QUANT	0	Vch Offset (V)
VCHFILTER	IQUANT	3	Vch Filter
ACHRANGE	IQUANT	2	Ach Range
ACHOFFSETENABLE	TOGGLE	F	Ach Offset Enable
ACHOFFSET	QUANT	0	Ach Offset (V)
ACHFILTER	IQUANT	3	Ach Filter
IERANGELOWERLIMIT	IQUANT	1	I/E Range Lower Limit
IERANGEMODE	TOGGLE	F	I/E AutoRange
IERANGE	IQUANT	6	I/E Range
POSFEEDENABLE	TOGGLE	F	Positive Feedback IR Comp
POSFEEDRESISTANCE	QUANT	0	Positive Feedback Resistance (ohm)
ACHSELECT	IQUANT	0	Ach Select
CABLEID	IQUANT	14	Cable ID
DCCALDATE	LABEL	8/19/2019	DC Calibration Date
ACCALDATE	LABEL	8/19/2019	AC Calibration Date
THERMOSELECT	IQUANT	1	Thermo Select
FRAMEWORKVERSION	QUANT	6.33	Framework Version
INSTRUMENTVERSION	LABEL	3.50	Instrument Version
ZCURVE	TABLE
	Pt	Time	Freq	Zreal	Zimag	Zsig	Zmod	Zphz	Idc	Vdc	IERange
	#	s	Hz	ohm	ohm	V	ohm	°	A	V	#
	0	2	1000078	2615.176	-2281.179	1	3470.292	-41.09771	-3.651204E-006	0.0094027	8
	1	3	794390.6	3052.749	-2289.565	1	3815.938	-36.86994	1.06188E-006	0.0086546	8
	2	4	630984.4	3523.552	-2230.321	1	4170.103	-32.33279	-1.362286E-006	0.0087537	8
	3	6	501234.4	3932.336	-2111.946	1	4463.584	-28.23898	1.709412E-006	0.0078265	8
	4	7	398109.4	4314.013	-1927.899	1	4725.198	-24.07949	-5.320807E-007	0.0081757	8
	5	9	316265.6	4600.292	-1726.508	1	4913.604	-20.57131	-4.155811E-006	0.009108	8
	6	10	251203.1	4862.666	-1509.619	1	5091.608	-17.247	1.467903E-006	0.007762	8
	7	12	199546.9	5051.932	-1325.106	1	5222.827	-14.69742	1.037189E-006	0.0077279	8
	8	14	158578.1	5211.855	-1151.242	1	5337.49	-12.456	-3.010162E-006	0.0087128	8
	9	15	125953.1	5312.573	-943.2165	1	5395.655	-10.06762	-6.609999E-007	0.0100382	7
	10	16	100078.1	5407.287	-831.556	1	5470.853	-8.742702	-5.706169E-008	0.0082628	7
	11	18	79453.13	5479.308	-749.0848	1	5530.275	-7.784737	-1.353076E-008	0.0081082	7
	12	19	63140.62	5538.181	-691.23	1	5581.151	-7.114396	9.778285E-008	0.0080051	7
	13	21	50203.12	5591.97	-649.1299	1	5629.521	-6.621403	-4.141424E-008	0.0080905	7
	14	22	39890.62	5642.752	-628.5449	1	5677.651	-6.355962	-7.656279E-008	0.0081928	7
	15	23	31640.63	5694.755	-622.2732	1	5728.653	-6.236042	1.350573E-008	0.0079925	7
	16	25	25171.88	5746.322	-632.3983	1	5781.016	-6.280282	4.057573E-009	0.0080981	7
	17	26	20015.62	5797.731	-631.4561	1	5832.018	-6.215831	-1.3823E-008	0.0081002	7
	18	27	15890.62	5854.499	-704.8139	1	5896.772	-6.864711	4.616565E-008	0.0079171	7
	19	29	12609.37	5913.743	-766.7797	1	5963.247	-7.387791	-4.805659E-010	0.008107	7
	20	30	10078.13	5975.715	-847.8968	1	6035.57	-8.075814	-7.312951E-008	0.0081778	7
	21	32	8015.625	6026.068	-950.362	1	6100.548	-8.962216	-5.434572E-008	0.0081109	7
	22	34	6328.125	6114.722	-1083.824	1	6210.032	-10.05119	9.559975E-008	0.0080164	7
	23	35	5015.625	6191.938	-1246.173	1	6316.094	-11.37919	8.857187E-008	0.0078929	7
	24	37	3984.375	6270.46	-1458.558	1	6437.862	-13.09459	7.639148E-008	0.0079446	7
	25	38	3170.956	6371.132	-1695.074	1	6592.769	-14.89871	9.561565E-008	0.0080118	7
	26	39	2527.573	6478.208	-1995.069	1	6778.458	-17.11706	4.354543E-008	0.0079197	7
	27	41	1976.103	6603.154	-2394.345	1	7023.854	-19.93096	-3.676302E-008	0.0080846	7
	28	42	1577.524	6748.579	-2866.232	1	7332.026	-23.01172	4.754191E-008	0.0080132	7
	29	43	1265.625	6897.346	-3383.799	1	7682.673	-26.13231	-4.016675E-008	0.0080798	7
	30	45	998.264	7089.176	-4097.074	1	8187.944	-30.02507	4.837229E-008	0.00801	7
	31	46	796.875	7312.361	-4916.055	1	8811.255	-33.91269	4.975597E-008	0.0080027	7
	32	48	627.7902	7598.164	-5965.429	1	9660.15	-38.13597	-1.106713E-008	0.0080892	6
	33	49	505.5147	7898.801	-7139.232	1	10647.05	-42.10846	2.008926E-009	0.0080548	6
	34	50	397.9953	8304.454	-8714.3	1	12037.57	-46.37953	5.525951E-010	0.0080218	6
	35	52	315.5048	8776.486	-10584.57	1	13749.9	-50.33524	7.892949E-010	0.0080203	6
	36	53	252.4038	9324.943	-12774.18	1	15815.63	-53.87117	8.226887E-010	0.0080171	6
	37	54	198.6229	10047.13	-15660.26	1	18606.15	-57.31704	7.220838E-010	0.0080135	6
	38	56	158.3615	10906.08	-18993.54	1	21901.99	-60.13557	4.160124E-010	0.0080116	6
	39	57	125.558	12021.31	-23178.3	1	26110.25	-62.58671	8.54023E-010	0.0080141	6
	40	58	100.4464	13411.34	-28118.86	1	31153.4	-64.50111	4.858519E-010	0.0080136	6
	41	60	79.00281	15460.55	-34402.01	1	37716.4	-65.80045	7.027714E-010	0.0080135	6
	42	61	63.3446	18187.77	-41931.02	1	45705.64	-66.55099	8.364356E-010	0.0080153	6
	43	63	49.86702	20732.61	-50907.8	1	54967.68	-67.841	1.267036E-009	0.0080099	6
	44	64	39.72458	25444.04	-61214.43	1	66291.82	-67.42957	7.841624E-010	0.0080178	6
	45	65	31.6723	31137.53	-73009.3	1	79371.93	-66.90237	7.636812E-010	0.0080127	6
	46	67	24.93351	38908.4	-88042.82	1	96257	-66.15813	7.487158E-010	0.0080149	6
	47	68	19.86229	48322.25	-104190.2	1	114850.5	-65.11865	-2.761991E-010	0.0080187	5
	48	70	15.83615	59281.89	-121793.8	1	135455.1	-64.04597	9.751724E-010	0.0080206	5
	49	71	12.40079	77931.16	-143637.3	1	163416.5	-61.51773	-1.492799E-009	0.0080255	5
	50	72	9.93114	93605.35	-164541.4	1	189303.6	-60.36504	4.627425E-010	0.0080159	5
	51	74	7.944915	113328.1	-186287.4	1	218051.1	-58.68573	-2.437528E-010	0.0080191	5
	52	76	6.317385	136496.4	-211518.4	1	251736.6	-57.16518	-1.981381E-010	0.0080261	5
	53	78	5.008013	162349.7	-238867.5	1	288816.8	-55.79745	-8.73191E-011	0.0080184	5
	54	80	3.945707	190543.5	-270049.9	1	330505.4	-54.79373	3.109384E-010	0.0080229	5
	55	83	3.158693	218546.2	-303210.7	1	373763.5	-54.21693	-4.800271E-011	0.008003	5
	56	86	2.504006	249783.5	-343638.8	1	424828.7	-53.98742	1.914717E-010	0.0080267	5
	57	89	1.998082	281529	-389161.9	1	480318.2	-54.11713	3.462578E-010	0.008005	5
	58	92	1.584686	318433.9	-446963.5	1	548795.5	-54.53247	1.767249E-011	0.0079729	5
	59	96	1.266892	356420	-511670.2	1	623571.7	-55.13964	2.536427E-010	0.0079932	5
	60	100	0.999041	402960.1	-596694	1	720014.3	-55.96801	-7.960638E-011	0.0080311	5
