EXPLAIN
TAG	EISPOT
TITLE	LABEL	Potentiostatic EIS	Test &Identifier
DATE	LABEL	9/24/2019	Date
TIME	LABEL	9:23:16	Time
NOTES	NOTES	1	&Notes...
	
PSTAT	PSTAT	REF600-11020	Potentiostat
VDC	POTEN	0.00000E+000	T	DC &Voltage (V)
FREQINIT	QUANT	1.00000E+006	Initial Fre&q. (Hz)
FREQFINAL	QUANT	1.00000E+000	Final Fre&q. (Hz)
PTSPERDEC	QUANT	1.00000E+001	Points/&decade
VAC	QUANT	2.50000E+001	AC &Voltage (mV rms)
AREA	QUANT	1.00000E-002	&Area (cm^2)
CONDIT	TWOPARAM	T	5.00000E+000	0.00000E+000	Conditionin&g	Time(s)	E(V)
DELAY	TWOPARAM	T	5.00000E+000	0.00000E+000	Init. De&lay	Time(s)	Stab.(mV/s)
SPEED	SELECTOR	1	&Optimize for:
ZGUESS	QUANT	1.00000E+004	E&stimated Z (ohms)
OCVCURVE	TABLE	19
	Pt	T	Vf	Vm	Ach	Over
	#	s	V vs. Ref.	V	V	bits
	0	0.258333	2.52357E-003	2.52357E-003	4.86100E-004	...........
	1	0.516667	2.51786E-003	2.22505E-003	4.81134E-004	...........
	2	0.775	2.48328E-003	1.96477E-003	4.81767E-004	...........
	3	1.03333	2.38715E-003	1.72887E-003	4.88067E-004	...........
	4	1.29167	2.21936E-003	1.51618E-003	4.85700E-004	...........
	5	1.55	2.00343E-003	1.31849E-003	4.83834E-004	...........
	6	1.80833	1.77337E-003	1.13860E-003	4.86467E-004	...........
	7	2.06667	1.55209E-003	9.69401E-004	4.91200E-004	...........
	8	2.325	1.34819E-003	8.09834E-004	4.90867E-004	...........
	9	2.58333	1.16171E-003	6.64846E-004	4.87734E-004	...........
	10	2.84167	9.89931E-004	5.21860E-004	4.84700E-004	...........
	11	3.1	8.30176E-004	3.90148E-004	4.78334E-004	...........
	12	3.35833	6.80364E-004	2.64747E-004	4.90467E-004	...........
	13	3.61667	5.39135E-004	1.47305E-004	4.84534E-004	...........
	14	3.875	4.05759E-004	3.38584E-005	4.83434E-004	...........
	15	4.13333	2.79654E-004	-7.43160E-005	4.80967E-004	...........
	16	4.39167	1.60027E-004	-1.80028E-004	4.78934E-004	...........
	17	4.65	4.59564E-005	-2.78979E-004	4.79334E-004	...........
	18	4.90833	-6.32871E-005	-3.75830E-004	4.77034E-004	...........
EOC	QUANT	-6.32871E-005	Open Circuit (V)
PSTATMODEL	IQUANT	4	Pstat Model
PSTATSECTION	LABEL	REF600-11020	Pstat Section
PSTATSERIALNO	LABEL	11020	Pstat Serial Number
CTRLMODE	IQUANT	1	Control Mode
IESTAB	IQUANT	0	I/E Stability
CASPEED	IQUANT	1	Control Amp Speed
CONVENTION	IQUANT	1	Current Convention
ICHRANGE	IQUANT	2	Ich Range
ICHRANGEMODE	TOGGLE	F	Ich Auto Range
ICHOFFSETENABLE	TOGGLE	T	Ich Offset Enable
ICHOFFSET	QUANT	0	Ich Offset (V)
ICHFILTER	IQUANT	3	Ich Filter
VCHRANGE	IQUANT	2	Vch Range
VCHRANGEMODE	TOGGLE	F	Vch Auto Range
VCHOFFSETENABLE	TOGGLE	T	Vch Offset Enable
VCHOFFSET	QUANT	0	Vch Offset (V)
VCHFILTER	IQUANT	3	Vch Filter
ACHRANGE	IQUANT	2	Ach Range
ACHOFFSETENABLE	TOGGLE	F	Ach Offset Enable
ACHOFFSET	QUANT	0	Ach Offset (V)
ACHFILTER	IQUANT	3	Ach Filter
IERANGELOWERLIMIT	IQUANT	1	I/E Range Lower Limit
IERANGEMODE	TOGGLE	F	I/E AutoRange
IERANGE	IQUANT	4	I/E Range
POSFEEDENABLE	TOGGLE	F	Positive Feedback IR Comp
POSFEEDRESISTANCE	QUANT	0	Positive Feedback Resistance (ohm)
ACHSELECT	IQUANT	0	Ach Select
CABLEID	IQUANT	14	Cable ID
DCCALDATE	LABEL	8/19/2019	DC Calibration Date
ACCALDATE	LABEL	8/19/2019	AC Calibration Date
THERMOSELECT	IQUANT	1	Thermo Select
FRAMEWORKVERSION	QUANT	6.33	Framework Version
INSTRUMENTVERSION	LABEL	3.50	Instrument Version
ZCURVE	TABLE
	Pt	Time	Freq	Zreal	Zimag	Zsig	Zmod	Zphz	Idc	Vdc	IERange
	#	s	Hz	ohm	ohm	V	ohm	°	A	V	#
	0	2	1000078	2173.681	-1700.516	1	2759.827	-38.03682	4.81608E-006	0.0013035	8
	1	3	794390.6	2511.169	-1669.11	1	3015.278	-33.61098	-5.768329E-006	0.0028402	8
	2	4	630984.4	2842.709	-1570.039	1	3247.463	-28.91204	1.139902E-006	0.001738	8
	3	6	501234.4	3118.961	-1436.201	1	3433.743	-24.72485	-3.587889E-006	0.0024445	8
	4	7	398109.4	3363.047	-1296.728	1	3604.384	-21.0857	-2.995638E-006	0.0023205	8
	5	8	316265.6	3541.048	-1136.337	1	3718.908	-17.79165	8.517359E-007	0.0015003	8
	6	10	251203.1	3686.058	-988.876	1	3816.399	-15.01739	1.553311E-006	0.001278	8
	7	11	199546.9	3790.232	-834.6464	1	3881.043	-12.41889	2.575288E-006	0.0010897	8
	8	13	158578.1	3858.964	-731.6877	1	3927.718	-10.73625	-9.515129E-007	0.0018003	8
	9	14	125953.1	3960.334	-599.7025	1	4005.482	-8.610724	-5.485814E-007	0.0028101	7
	10	15	100078.1	3993.964	-529.1555	1	4028.865	-7.547096	-6.578258E-009	0.0015281	7
	11	17	79453.13	4032.897	-482.2597	1	4061.629	-6.819132	-3.474457E-008	0.0015899	7
	12	18	63140.62	4069.161	-450.778	1	4094.053	-6.321401	1.287527E-007	0.0013762	7
	13	19	50203.12	4102.987	-431.2149	1	4125.585	-5.999634	-3.645105E-008	0.0015768	7
	14	21	39890.62	4136.672	-427.138	1	4158.667	-5.895266	-5.171836E-009	0.001587	7
	15	22	31640.63	4169.317	-431.0733	1	4191.542	-5.902942	1.304076E-007	0.0013789	7
	16	24	25171.88	4204.397	-446.6205	1	4228.052	-6.06362	-6.916176E-008	0.0016669	7
	17	25	20015.62	4243.625	-473.6223	1	4269.973	-6.368311	1.302701E-007	0.0013694	7
	18	26	15890.62	4285.219	-514.616	1	4316.009	-6.847909	1.299794E-007	0.00137	7
	19	28	12609.37	4331.453	-563.0146	1	4367.891	-7.405946	7.089013E-008	0.0014356	7
	20	29	10078.13	4379.155	-626.176	1	4423.697	-8.137569	-3.16301E-008	0.0015798	7
	21	30	8015.625	4430.037	-703.3502	1	4485.524	-9.021463	7.018221E-008	0.0014353	7
	22	32	6328.125	4489.873	-801.9534	1	4560.93	-10.12703	-4.179711E-008	0.0017051	7
	23	33	5015.625	4550.677	-921.5798	1	4643.056	-11.44842	-6.940869E-008	0.0016658	7
	24	34	3984.375	4616.893	-1067.075	1	4738.602	-13.01392	-3.466895E-009	0.0015023	7
	25	36	3170.956	4686.99	-1243.835	1	4849.227	-14.86259	-3.460083E-008	0.001568	7
	26	37	2527.573	4764.26	-1459.124	1	4982.692	-17.02797	7.522665E-008	0.0015183	7
	27	39	1976.103	4858.015	-1749.848	1	5163.553	-19.80893	-1.347918E-008	0.0016867	7
	28	40	1577.524	4956.729	-2073.28	1	5372.862	-22.69838	-4.438341E-008	0.0016469	7
	29	41	1265.625	5071.827	-2469.741	1	5641.192	-25.9639	7.962099E-008	0.0013889	7
	30	43	998.264	5205.187	-2976.259	1	5996.006	-29.76037	-2.850139E-009	0.0015725	7
	31	44	796.875	5355.049	-3569.223	1	6435.52	-33.68407	-3.228759E-009	0.0015721	7
	32	45	627.7902	5542.832	-4333.112	1	7035.542	-38.01654	-3.734458E-009	0.0015752	7
	33	47	505.5147	5742.971	-5175.563	1	7730.987	-42.02517	8.072848E-008	0.0013874	7
	34	48	397.9953	5995.328	-6326.997	1	8716.354	-46.54181	6.738266E-009	0.0015714	7
	35	49	315.5048	6286.729	-7698.753	1	9939.5	-50.76525	1.143645E-009	0.0015125	6
	36	51	252.4038	6609.788	-9317.133	1	11423.58	-54.64724	1.656153E-009	0.0015133	6
	37	52	198.6229	7025.268	-11459.87	1	13441.83	-58.49036	1.457537E-009	0.0015095	6
	38	54	158.3615	7500	-13963.9	1	15850.57	-61.75978	1.907283E-009	0.0015094	6
	39	55	125.558	8095.972	-17127.7	1	18944.73	-64.7007	1.498917E-009	0.0015149	6
	40	56	100.4464	8789.525	-20864.94	1	22640.7	-67.15635	1.988752E-009	0.0015127	6
	41	58	79.00281	9800.07	-25769.52	1	27570.08	-69.17834	1.143719E-009	0.0015108	6
	42	59	63.3446	11255.19	-31351.5	1	33310.6	-70.25185	1.23586E-009	0.0015111	6
	43	60	49.86702	12470.62	-39124	1	41063.42	-72.32052	8.993136E-011	0.0015122	6
	44	62	39.72458	14593.84	-47604.03	1	49790.8	-72.95617	1.110768E-009	0.0015205	6
	45	63	31.6723	17458.42	-58002.98	1	60573.45	-73.24863	7.76961E-010	0.0015117	6
	46	65	24.93351	21084.19	-71469.03	1	74514.2	-73.56333	1.261063E-009	0.001512	6
	47	66	19.86229	25712.07	-86879.39	1	90604.3	-73.51381	1.819234E-009	0.0015078	6
	48	67	15.83615	30847.93	-105640	1	110051.8	-73.72166	-9.104024E-010	0.001512	5
	49	69	12.40079	41773.04	-129238.4	1	135821.8	-72.08789	1.950742E-009	0.0015099	5
	50	70	9.93114	51006.86	-154911.2	1	163092.6	-71.77509	2.22095E-010	0.0015143	5
	51	72	7.944915	65694.45	-185586.5	1	196870.8	-70.5069	3.495607E-010	0.0015111	5
	52	73	6.317385	82876.33	-221346.8	1	236353.3	-69.47317	8.360689E-010	0.0015139	5
	53	75	5.008013	106249.1	-263687.1	1	284288.1	-68.0537	6.791113E-010	0.0015233	5
	54	78	3.945707	136996	-313429.9	1	342061.7	-66.39051	3.060885E-010	0.0015088	5
	55	81	3.158693	172483.1	-364781.2	1	403504.3	-64.69334	4.189545E-010	0.0015289	5
	56	84	2.504006	217659.3	-424583.8	1	477123.6	-62.85843	1.749264E-010	0.0015102	5
	57	87	1.998082	269441.4	-487128.9	1	556680.6	-61.05208	-6.351475E-012	0.0015204	5
	58	90	1.584686	333481.9	-556308.4	1	648605.6	-59.0592	3.518482E-010	0.0015617	5
	59	94	1.266892	400006.8	-627310.6	1	743991.9	-57.47624	-1.281805E-011	0.0015265	5
	60	98	0.999041	481201.8	-709142.2	1	856993.4	-55.84041	5.173681E-010	0.001517	5
