EXPLAIN
TAG	EISPOT
TITLE	LABEL	Potentiostatic EIS	Test &Identifier
DATE	LABEL	6/20/2000	Date
TIME	LABEL	9:02:22	Time
NOTES	NOTES	2	&Notes...
	
	
PSTAT	PSTAT	REF600-11020	Potentiostat
VDC	POTEN	0.00000E+000	T	DC &Voltage (V)
FREQINIT	QUANT	1.00000E+006	Initial Fre&q. (Hz)
FREQFINAL	QUANT	1.00000E+000	Final Fre&q. (Hz)
PTSPERDEC	QUANT	1.00000E+001	Points/&decade
VAC	QUANT	2.50000E+001	AC &Voltage (mV rms)
AREA	QUANT	1.00000E-002	&Area (cm^2)
CONDIT	TWOPARAM	T	5.00000E+000	0.00000E+000	Conditionin&g	Time(s)	E(V)
DELAY	TWOPARAM	T	5.00000E+000	0.00000E+000	Init. De&lay	Time(s)	Stab.(mV/s)
SPEED	SELECTOR	0	&Optimize for:
ZGUESS	QUANT	1.00000E+005	E&stimated Z (ohms)
OCVCURVE	TABLE	19
	Pt	T	Vf	Vm	Ach	Over
	#	s	V vs. Ref.	V	V	bits
	0	0.258333	4.56645E-003	4.56645E-003	5.56066E-004	...........
	1	0.516667	4.56544E-003	4.51360E-003	5.59466E-004	...........
	2	0.775	4.55950E-003	4.47685E-003	5.54866E-004	...........
	3	1.03333	4.54378E-003	4.45503E-003	5.55933E-004	...........
	4	1.29167	4.51855E-003	4.44028E-003	5.50266E-004	...........
	5	1.55	4.49005E-003	4.42991E-003	5.48099E-004	...........
	6	1.80833	4.46481E-003	4.41722E-003	5.53633E-004	...........
	7	2.06667	4.44549E-003	4.41660E-003	5.58166E-004	...........
	8	2.325	4.43181E-003	4.41392E-003	5.60732E-004	...........
	9	2.58333	4.42285E-003	4.41446E-003	5.57666E-004	...........
	10	2.84167	4.41764E-003	4.41253E-003	5.54433E-004	...........
	11	3.1	4.41515E-003	4.42154E-003	5.59166E-004	...........
	12	3.35833	4.41486E-003	4.42739E-003	5.56733E-004	...........
	13	3.61667	4.41687E-003	4.43232E-003	5.60932E-004	...........
	14	3.875	4.42093E-003	4.43874E-003	5.55099E-004	...........
	15	4.13333	4.42626E-003	4.44421E-003	5.57699E-004	...........
	16	4.39167	4.43299E-003	4.49848E-003	5.53533E-004	...........
	17	4.65	4.44469E-003	4.55671E-003	5.53633E-004	...........
	18	4.90833	4.46584E-003	4.53271E-003	5.61632E-004	...........
EOC	QUANT	0.0044658	Open Circuit (V)
PSTATMODEL	IQUANT	4	Pstat Model
PSTATSECTION	LABEL	REF600-11020	Pstat Section
PSTATSERIALNO	LABEL	11020	Pstat Serial Number
CTRLMODE	IQUANT	1	Control Mode
IESTAB	IQUANT	0	I/E Stability
CASPEED	IQUANT	1	Control Amp Speed
CONVENTION	IQUANT	1	Current Convention
ICHRANGE	IQUANT	2	Ich Range
ICHRANGEMODE	TOGGLE	F	Ich Auto Range
ICHOFFSETENABLE	TOGGLE	T	Ich Offset Enable
ICHOFFSET	QUANT	0	Ich Offset (V)
ICHFILTER	IQUANT	3	Ich Filter
VCHRANGE	IQUANT	2	Vch Range
VCHRANGEMODE	TOGGLE	F	Vch Auto Range
VCHOFFSETENABLE	TOGGLE	T	Vch Offset Enable
VCHOFFSET	QUANT	0	Vch Offset (V)
VCHFILTER	IQUANT	3	Vch Filter
ACHRANGE	IQUANT	2	Ach Range
ACHOFFSETENABLE	TOGGLE	F	Ach Offset Enable
ACHOFFSET	QUANT	0	Ach Offset (V)
ACHFILTER	IQUANT	3	Ach Filter
IERANGELOWERLIMIT	IQUANT	1	I/E Range Lower Limit
IERANGEMODE	TOGGLE	F	I/E AutoRange
IERANGE	IQUANT	4	I/E Range
POSFEEDENABLE	TOGGLE	F	Positive Feedback IR Comp
POSFEEDRESISTANCE	QUANT	0	Positive Feedback Resistance (ohm)
ACHSELECT	IQUANT	0	Ach Select
CABLEID	IQUANT	14	Cable ID
DCCALDATE	LABEL	8/19/2019	DC Calibration Date
ACCALDATE	LABEL	8/19/2019	AC Calibration Date
THERMOSELECT	IQUANT	1	Thermo Select
FRAMEWORKVERSION	QUANT	6.33	Framework Version
INSTRUMENTVERSION	LABEL	3.50	Instrument Version
ZCURVE	TABLE
	Pt	Time	Freq	Zreal	Zimag	Zsig	Zmod	Zphz	Idc	Vdc	IERange
	#	s	Hz	ohm	ohm	V	ohm	°	A	V	#
	0	1	1000078	1862.599	-794.6037	1	2025.011	-23.10359	3.374403E-006	0.007169	8
	1	1	794390.6	1983.211	-709.6414	1	2106.352	-19.68845	-9.448477E-006	0.0076144	8
	2	2	630984.4	2091.459	-627.3945	1	2183.535	-16.69816	-1.193269E-006	0.0069198	8
	3	2	501234.4	2178.206	-547.9283	1	2246.064	-14.11981	2.715407E-006	0.0055672	8
	4	2	398109.4	2229.287	-476.7564	1	2279.697	-12.07146	-6.079214E-007	0.0065974	8
	5	3	316265.6	2275.208	-415.0982	1	2312.764	-10.33956	-6.411528E-006	0.0070159	8
	6	3	251203.1	2315.697	-367.6664	1	2344.702	-9.021628	1.054686E-006	0.0064541	8
	7	3	199546.9	2338.325	-326.1795	1	2360.965	-7.941106	-2.932655E-007	0.0057708	8
	8	4	158578.1	2374.047	-320.144	1	2395.535	-7.680099	-4.737409E-006	0.0064384	8
	9	4	125953.1	2403.721	-242.3219	1	2415.905	-5.756605	6.189686E-007	0.0079929	7
	10	4	100078.1	2426.825	-232.3531	1	2437.923	-5.469037	-2.905531E-007	0.0052359	7
	11	5	79453.13	2442.903	-230.9925	1	2453.8	-5.401633	-9.856276E-007	0.0065227	7
	12	5	63140.62	2463.442	-238.8284	1	2474.992	-5.537466	8.5159E-008	0.0068945	7
	13	5	50203.12	2486.588	-250.4612	1	2499.17	-5.751709	9.492909E-007	0.0053296	7
	14	6	39890.62	2510.749	-267.8122	1	2524.991	-6.088507	7.824385E-007	0.0057862	7
	15	6	31640.63	2535.991	-288.0075	1	2552.293	-6.479207	-5.708163E-007	0.0074994	7
	16	6	25171.88	2563.743	-315.4899	1	2583.082	-7.015451	-5.698286E-007	0.0075044	7
	17	7	20015.62	2594.482	-350.528	1	2618.054	-7.694366	9.019611E-007	0.0044474	7
	18	7	15890.62	2626.602	-391.4451	1	2655.611	-8.47646	3.862049E-007	0.0064651	7
	19	7	12609.37	2661.652	-441.5891	1	2698.035	-9.420015	5.863056E-007	0.0061721	7
	20	7	10078.13	2695.829	-501.9043	1	2742.153	-10.54647	-1.025083E-006	0.0075364	7
	21	8	8015.625	2737.847	-577.0367	1	2797.996	-11.90164	-2.941299E-007	0.0052267	7
	22	8	6328.125	2781.494	-669.2778	1	2860.881	-13.52922	4.418672E-007	0.0044723	7
	23	8	5015.625	2828.919	-781.4898	1	2934.878	-15.44283	1.02472E-006	0.0049392	7
	24	9	3984.375	2876.576	-916.4961	1	3019.048	-17.67222	-9.894559E-007	0.0065094	7
	25	9	3170.956	2933.76	-1083.265	1	3127.365	-20.26622	1.003957E-007	0.0047459	7
	26	9	2527.573	2994.188	-1284.582	1	3258.115	-23.22055	5.830537E-007	0.0061669	7
	27	10	1976.103	3065.569	-1555.785	1	3437.758	-26.90792	-9.878229E-007	0.0065076	7
	28	10	1577.524	3140.592	-1856.942	1	3648.499	-30.59461	-2.592486E-007	0.0072603	7
	29	10	1265.625	3226.832	-2228.187	1	3921.385	-34.6258	-1.155935E-006	0.0073927	7
	30	11	998.264	3329.187	-2720.265	1	4299.224	-39.25212	9.508198E-007	0.0053213	7
	31	11	796.875	3447.597	-3291.741	1	4766.706	-43.6752	7.836622E-007	0.0057816	7
	32	11	627.7902	3599.634	-4039.627	1	5410.726	-48.29638	-8.328435E-007	0.0075835	7
	33	12	505.5147	3766.321	-4885.047	1	6168.375	-52.36815	5.858259E-007	0.0061658	7
	34	12	397.9953	3998.101	-6025.519	1	7231.3	-56.43461	4.16401E-010	0.0060353	7
	35	12	315.5048	4288.357	-7396.198	1	8549.488	-59.8946	1.081183E-009	0.0060291	7
	36	13	252.4038	4648.788	-9009.344	1	10138.02	-62.70643	3.527022E-010	0.0060298	7
	37	13	198.6229	5157.368	-11128.45	1	12265.43	-65.13512	4.358883E-010	0.0059664	6
	38	13	158.3615	5789.321	-13580.36	1	14762.88	-66.91141	-9.245785E-012	0.0059678	6
	39	14	125.558	6640.593	-16626.38	1	17903.46	-68.22819	-3.860405E-010	0.0059751	6
	40	14	100.4464	7722.583	-20131.83	1	21562.21	-69.01315	2.539395E-010	0.0059765	6
	41	14	79.00281	9305.261	-24680.64	1	26376.54	-69.34222	-1.211586E-012	0.0059702	6
	42	15	63.3446	11007.27	-29952.88	1	31911.36	-69.8223	-2.555785E-010	0.0059721	6
	43	15	49.86702	13693.89	-36328.95	1	38824.16	-69.34649	-1.233281E-009	0.0059757	6
	44	15	39.72458	17211.36	-43341.65	1	46634	-68.34152	3.73562E-010	0.0059739	6
	45	16	31.6723	21523.77	-51452	1	55772.58	-67.29912	5.923782E-011	0.005973	6
	46	16	24.93351	27259.96	-61519.17	1	67288.29	-66.10123	-5.27423E-011	0.005969	6
	47	16	19.86229	34137.08	-72236.04	1	79896.09	-64.70567	1.939757E-009	0.0059675	6
	48	17	15.83615	43489.23	-83323.66	1	93990.14	-62.43853	-3.507967E-009	0.0059724	6
	49	17	12.40079	53776.07	-98131.4	1	111900.1	-61.27724	-1.229553E-009	0.0059713	5
	50	17	9.93114	65505.27	-111468.5	1	129291	-59.55907	1.125549E-009	0.0059715	5
	51	18	7.944915	78638.55	-126569.9	1	149009.9	-58.14709	7.734784E-011	0.0059652	5
	52	18	6.317385	93542.79	-142843.4	1	170746.9	-56.78071	1.083687E-010	0.0059743	5
	53	19	5.008013	110047	-161404.8	1	195350.6	-55.71354	3.822879E-010	0.0059795	5
	54	20	3.945707	128376.2	-182973.1	1	223516.4	-54.94601	-2.0492E-010	0.0059639	5
	55	22	3.158693	146287.7	-205989.6	1	252649.5	-54.61876	7.193331E-011	0.0059544	5
	56	23	2.504006	166098.8	-234754.2	1	287573.3	-54.71894	2.633804E-010	0.0059612	5
	57	25	1.998082	186664.7	-267595.3	1	326268.2	-55.10178	-9.730595E-011	0.0059266	5
	58	26	1.584686	209773.4	-309951.1	1	374265.3	-55.91005	-9.381331E-011	0.0059159	5
	59	28	1.266892	234456.9	-358609.5	1	428451.6	-56.82356	-3.936911E-011	0.0059487	5
	60	31	0.999041	266076.6	-420768	1	497837.8	-57.6924	1.209118E-011	0.0059763	5
