EXPLAIN
TAG	EISPOT
TITLE	LABEL	Potentiostatic EIS	Test &Identifier
DATE	LABEL	11/20/2019	Date
TIME	LABEL	10:34:18	Time
NOTES	NOTES	4	&Notes...
	
	
	
	
PSTAT	PSTAT	REF600-11020	Potentiostat
VDC	POTEN	0.00000E+000	T	DC &Voltage (V)
FREQINIT	QUANT	1.00000E+006	Initial Fre&q. (Hz)
FREQFINAL	QUANT	1.00000E+000	Final Fre&q. (Hz)
PTSPERDEC	QUANT	1.00000E+001	Points/&decade
VAC	QUANT	2.50000E+001	AC &Voltage (mV rms)
AREA	QUANT	1.00000E-002	&Area (cm^2)
CONDIT	TWOPARAM	T	5.00000E+000	0.00000E+000	Conditionin&g	Time(s)	E(V)
DELAY	TWOPARAM	T	5.00000E+000	0.00000E+000	Init. De&lay	Time(s)	Stab.(mV/s)
SPEED	SELECTOR	1	&Optimize for:
ZGUESS	QUANT	1.00000E+005	E&stimated Z (ohms)
OCVCURVE	TABLE	19
	Pt	T	Vf	Vm	Ach	Over
	#	s	V vs. Ref.	V	V	bits
	0	0.258333	1.99831E-003	1.99831E-003	5.76632E-004	...........
	1	0.516667	1.99119E-003	1.62539E-003	5.65299E-004	...........
	2	0.775	1.94792E-003	1.29693E-003	5.66499E-004	...........
	3	1.03333	1.82739E-003	9.96741E-004	5.66032E-004	...........
	4	1.29167	1.61632E-003	7.21132E-004	5.68866E-004	...........
	5	1.55	1.34254E-003	4.26376E-004	5.69332E-004	...........
	6	1.80833	1.04563E-003	1.84651E-004	5.69799E-004	...........
	7	2.06667	7.53085E-004	-9.62410E-007	5.71199E-004	...........
	8	2.325	4.80894E-004	-1.98497E-004	5.70299E-004	...........
	9	2.58333	2.36874E-004	-3.81784E-004	5.68066E-004	...........
	10	2.84167	1.98381E-005	-5.45198E-004	5.67732E-004	...........
	11	3.1	-1.76622E-004	-7.09679E-004	5.66799E-004	...........
	12	3.35833	-3.58366E-004	-8.63262E-004	5.68432E-004	...........
	13	3.61667	-5.29200E-004	-1.00960E-003	5.63232E-004	...........
	14	3.875	-6.91158E-004	-1.13874E-003	5.65499E-004	...........
	15	4.13333	-8.44642E-004	-1.27289E-003	5.67999E-004	...........
	16	4.39167	-9.89701E-004	-1.39870E-003	5.66866E-004	...........
	17	4.65	-1.12766E-003	-1.53803E-003	5.64099E-004	...........
	18	4.90833	-1.26092E-003	-1.64800E-003	5.65232E-004	...........
EOC	QUANT	-0.0012609	Open Circuit (V)
PSTATMODEL	IQUANT	4	Pstat Model
PSTATSECTION	LABEL	REF600-11020	Pstat Section
PSTATSERIALNO	LABEL	11020	Pstat Serial Number
CTRLMODE	IQUANT	1	Control Mode
IESTAB	IQUANT	0	I/E Stability
CASPEED	IQUANT	1	Control Amp Speed
CONVENTION	IQUANT	1	Current Convention
ICHRANGE	IQUANT	2	Ich Range
ICHRANGEMODE	TOGGLE	F	Ich Auto Range
ICHOFFSETENABLE	TOGGLE	T	Ich Offset Enable
ICHOFFSET	QUANT	0	Ich Offset (V)
ICHFILTER	IQUANT	3	Ich Filter
VCHRANGE	IQUANT	2	Vch Range
VCHRANGEMODE	TOGGLE	F	Vch Auto Range
VCHOFFSETENABLE	TOGGLE	T	Vch Offset Enable
VCHOFFSET	QUANT	0	Vch Offset (V)
VCHFILTER	IQUANT	3	Vch Filter
ACHRANGE	IQUANT	2	Ach Range
ACHOFFSETENABLE	TOGGLE	F	Ach Offset Enable
ACHOFFSET	QUANT	0	Ach Offset (V)
ACHFILTER	IQUANT	3	Ach Filter
IERANGELOWERLIMIT	IQUANT	1	I/E Range Lower Limit
IERANGEMODE	TOGGLE	F	I/E AutoRange
IERANGE	IQUANT	4	I/E Range
POSFEEDENABLE	TOGGLE	F	Positive Feedback IR Comp
POSFEEDRESISTANCE	QUANT	0	Positive Feedback Resistance (ohm)
ACHSELECT	IQUANT	0	Ach Select
CABLEID	IQUANT	14	Cable ID
DCCALDATE	LABEL	8/19/2019	DC Calibration Date
ACCALDATE	LABEL	8/19/2019	AC Calibration Date
THERMOSELECT	IQUANT	1	Thermo Select
FRAMEWORKVERSION	QUANT	6.33	Framework Version
INSTRUMENTVERSION	LABEL	3.50	Instrument Version
ZCURVE	TABLE
	Pt	Time	Freq	Zreal	Zimag	Zsig	Zmod	Zphz	Idc	Vdc	IERange
	#	s	Hz	ohm	ohm	V	ohm	°	A	V	#
	0	2	1000078	2378.119	-1983.559	1	3096.766	-39.83105	-3.798754E-006	0.000484	8
	1	4	794390.6	2803.846	-1946.178	1	3413.086	-34.76491	8.298662E-006	-0.0002689	8
	2	5	630984.4	3190.26	-1842.54	1	3684.116	-30.00865	-3.332209E-006	0.0008694	8
	3	6	501234.4	3517.304	-1687.458	1	3901.146	-25.62978	-9.239767E-007	0.0007582	8
	4	8	398109.4	3800.229	-1501.394	1	4086.064	-21.55797	-1.400255E-006	8.638433E-005	8
	5	9	316265.6	4008.597	-1318.13	1	4219.753	-18.2022	-2.805042E-007	0.0006907	8
	6	10	251203.1	4169.715	-1141.501	1	4323.141	-15.31018	-1.866535E-006	0.0003883	8
	7	12	199546.9	4303.499	-970.784	1	4411.635	-12.71201	-1.224017E-006	0.0006332	8
	8	13	158578.1	4410.126	-841.7829	1	4489.746	-10.80635	-1.39275E-008	-5.018785E-006	8
	9	14	125953.1	4483.602	-695.8547	1	4537.279	-8.821918	-1.46721E-006	0.0039876	7
	10	16	100078.1	4533.875	-613.8752	1	4575.244	-7.710813	-9.785748E-007	0.0006865	7
	11	17	79453.13	4580.274	-557.9838	1	4614.136	-6.945732	7.541832E-007	-0.0014617	7
	12	18	63140.62	4622.363	-518.7468	1	4651.38	-6.403252	-2.939034E-007	0.0015151	7
	13	20	50203.12	4662.602	-496.5796	1	4688.971	-6.079238	1.318344E-007	-0.0011077	7
	14	21	39890.62	4702.243	-485.9404	1	4727.286	-5.900131	3.505767E-007	0.0007423	7
	15	23	31640.63	4740.469	-489.2807	1	4765.652	-5.892835	-2.695094E-007	-0.0006188	7
	16	24	25171.88	4780.69	-504.4978	1	4807.236	-6.024027	-8.604165E-007	0.0017933	7
	17	25	20015.62	4825.512	-530.8079	1	4854.619	-6.277318	1.036639E-006	-0.0011547	7
	18	27	15890.62	4872.033	-574.5886	1	4905.798	-6.726171	3.510798E-007	0.0007465	7
	19	28	12609.37	4919.761	-632.243	1	4960.219	-7.322996	7.792507E-007	3.878442E-005	7
	20	29	10078.13	4969.312	-699.2667	1	5018.27	-8.009899	-2.920656E-007	0.0015151	7
	21	31	8015.625	5026.4	-788.349	1	5087.848	-8.913748	4.973097E-008	0.0011466	7
	22	32	6328.125	5087.453	-900.6522	1	5166.561	-10.03928	1.036417E-006	-0.0011567	7
	23	33	5015.625	5150.649	-1039.4	1	5254.478	-11.40905	7.568508E-007	-0.0014754	7
	24	35	3984.375	5216.455	-1208.35	1	5354.578	-13.04208	5.638557E-007	0.0004408	7
	25	36	3170.956	5292.412	-1416.272	1	5478.636	-14.98156	-9.779106E-007	0.000665	7
	26	37	2527.573	5373.956	-1671.75	1	5627.979	-17.28006	-9.786123E-007	0.0006697	7
	27	39	1976.103	5474.523	-2017.265	1	5834.361	-20.22795	1.042762E-006	-0.0008411	7
	28	40	1577.524	5578.022	-2398.47	1	6071.82	-23.26702	4.828385E-007	-0.0013824	7
	29	42	1265.625	5693.369	-2866.77	1	6374.387	-26.72653	-1.04517E-006	0.0017396	7
	30	43	998.264	5842.535	-3485.495	1	6803.227	-30.81914	7.57059E-007	-0.0014754	7
	31	44	796.875	5998.929	-4198.255	1	7322.056	-34.98564	3.55321E-007	0.0007444	7
	32	46	627.7902	6202.491	-5130.448	1	8049.372	-39.59616	7.828165E-007	3.205888E-005	7
	33	47	505.5147	6417.84	-6170.19	1	8902.804	-43.87294	5.457738E-008	0.0011388	7
	34	49	397.9953	6707.858	-7584.33	1	10125.09	-48.50928	1.240511E-009	0.0001729	6
	35	50	315.5048	7049.357	-9282.294	1	11655.66	-52.78547	1.383671E-011	0.0001807	6
	36	51	252.4038	7452.346	-11283.68	1	13522.53	-56.55708	7.580321E-010	0.0001788	6
	37	53	198.6229	7998.503	-13929.64	1	16062.72	-60.13523	9.518086E-010	0.0001774	6
	38	54	158.3615	8661.528	-17008.98	1	19087.36	-63.01332	7.033326E-010	0.0001642	6
	39	55	125.558	9527.47	-20873.51	1	22945.07	-65.46622	3.287951E-010	0.0001721	6
	40	57	100.4464	10607.74	-25382.96	1	27510.34	-67.31956	8.213893E-010	0.0001749	6
	41	58	79.00281	12122.44	-31309.24	1	33574.12	-68.83438	3.936192E-010	0.0001635	6
	42	59	63.3446	13728.69	-37867.95	1	40279.76	-70.07233	6.832894E-010	0.0001687	6
	43	61	49.86702	16900.09	-46618.77	1	49587.52	-70.07357	9.822331E-010	0.0001701	6
	44	62	39.72458	20065.66	-56707.43	1	60152.84	-70.51391	1.236173E-009	0.0001723	6
	45	64	31.6723	24595.26	-68452.78	1	72737.27	-70.2365	2.837762E-010	0.0001632	6
	46	65	24.93351	30520.29	-83224.48	1	88644.24	-69.86088	6.050263E-011	0.0001713	6
	47	66	19.86229	37934.82	-99546.1	1	106529.2	-69.13926	-1.501395E-010	0.0001671	5
	48	68	15.83615	48159.36	-118937.8	1	128318.1	-67.95638	1.446635E-009	0.0001751	5
	49	69	12.40079	60057.96	-142937.6	1	155042.3	-67.20936	1.108536E-010	0.0001716	5
	50	70	9.93114	75636.65	-166535.2	1	182906.7	-65.57349	7.640941E-010	0.0001617	5
	51	72	7.944915	94684.25	-194238.4	1	216087.1	-64.01242	2.04773E-010	0.0001741	5
	52	74	6.317385	116236.5	-225098.6	1	253338.4	-62.68906	-1.680982E-010	0.0001733	5
	53	76	5.008013	143140.6	-260478.8	1	297217.8	-61.20993	-1.672001E-010	0.000166	5
	54	78	3.945707	175391.9	-300211.3	1	347691.1	-59.70532	4.061206E-010	0.0001832	5
	55	81	3.158693	210254.6	-342070.3	1	401521	-58.42291	-5.210293E-011	0.0001585	5
	56	84	2.504006	251540.2	-389569.3	1	463720.5	-57.15015	5.315856E-010	0.0001743	5
	57	87	1.998082	296290.8	-440065.8	1	530515	-56.04811	8.766837E-011	0.0002115	5
	58	90	1.584686	345319	-498456.2	1	606385.8	-55.28667	2.471928E-010	0.0001776	5
	59	94	1.266892	399887.3	-561702.1	1	689506.4	-54.55215	5.232446E-011	0.0002149	5
	60	98	0.999041	460069.4	-638397.7	1	786902.4	-54.22111	1.101372E-010	0.0001349	5
