EXPLAIN
TAG	EISPOT
TITLE	LABEL	Potentiostatic EIS	Test &Identifier
DATE	LABEL	10/12/2019	Date
TIME	LABEL	10:34:48	Time
NOTES	NOTES	1	&Notes...
	
PSTAT	PSTAT	REF600-11020	Potentiostat
VDC	POTEN	0.00000E+000	T	DC &Voltage (V)
FREQINIT	QUANT	1.00000E+006	Initial Fre&q. (Hz)
FREQFINAL	QUANT	1.00000E+000	Final Fre&q. (Hz)
PTSPERDEC	QUANT	1.00000E+001	Points/&decade
VAC	QUANT	2.50000E+001	AC &Voltage (mV rms)
AREA	QUANT	1.00000E-002	&Area (cm^2)
CONDIT	TWOPARAM	T	5.00000E+000	0.00000E+000	Conditionin&g	Time(s)	E(V)
DELAY	TWOPARAM	T	5.00000E+000	0.00000E+000	Init. De&lay	Time(s)	Stab.(mV/s)
SPEED	SELECTOR	1	&Optimize for:
ZGUESS	QUANT	1.00000E+004	E&stimated Z (ohms)
OCVCURVE	TABLE	19
	Pt	T	Vf	Vm	Ach	Over
	#	s	V vs. Ref.	V	V	bits
	0	0.258333	6.20824E-003	6.20824E-003	4.99533E-004	...........
	1	0.516667	6.20682E-003	6.13409E-003	5.04133E-004	...........
	2	0.775	6.19835E-003	6.07567E-003	5.04233E-004	...........
	3	1.03333	6.17533E-003	6.02984E-003	5.05200E-004	...........
	4	1.29167	6.13669E-003	5.99782E-003	5.08700E-004	...........
	5	1.55	6.09008E-003	5.97040E-003	5.10933E-004	...........
	6	1.80833	6.04502E-003	5.94703E-003	5.09433E-004	...........
	7	2.06667	6.00671E-003	5.92390E-003	5.09367E-004	...........
	8	2.325	5.97560E-003	5.90836E-003	5.09233E-004	...........
	9	2.58333	5.95014E-003	5.89345E-003	5.08967E-004	...........
	10	2.84167	5.92908E-003	5.88840E-003	5.05067E-004	...........
	11	3.1	5.91214E-003	5.88503E-003	5.13666E-004	...........
	12	3.35833	5.89968E-003	5.88927E-003	5.10900E-004	...........
	13	3.61667	5.89117E-003	5.84683E-003	5.11800E-004	...........
	14	3.875	5.88410E-003	5.87679E-003	5.11667E-004	...........
	15	4.13333	5.87720E-003	5.88419E-003	5.08900E-004	...........
	16	4.39167	5.87328E-003	5.88828E-003	5.10867E-004	...........
	17	4.65	5.87473E-003	5.89016E-003	5.09767E-004	...........
	18	4.90833	5.87967E-003	5.88903E-003	5.09667E-004	...........
EOC	QUANT	0.0058797	Open Circuit (V)
PSTATMODEL	IQUANT	4	Pstat Model
PSTATSECTION	LABEL	REF600-11020	Pstat Section
PSTATSERIALNO	LABEL	11020	Pstat Serial Number
CTRLMODE	IQUANT	1	Control Mode
IESTAB	IQUANT	0	I/E Stability
CASPEED	IQUANT	1	Control Amp Speed
CONVENTION	IQUANT	1	Current Convention
ICHRANGE	IQUANT	2	Ich Range
ICHRANGEMODE	TOGGLE	F	Ich Auto Range
ICHOFFSETENABLE	TOGGLE	T	Ich Offset Enable
ICHOFFSET	QUANT	0	Ich Offset (V)
ICHFILTER	IQUANT	3	Ich Filter
VCHRANGE	IQUANT	2	Vch Range
VCHRANGEMODE	TOGGLE	F	Vch Auto Range
VCHOFFSETENABLE	TOGGLE	T	Vch Offset Enable
VCHOFFSET	QUANT	0	Vch Offset (V)
VCHFILTER	IQUANT	3	Vch Filter
ACHRANGE	IQUANT	2	Ach Range
ACHOFFSETENABLE	TOGGLE	F	Ach Offset Enable
ACHOFFSET	QUANT	0	Ach Offset (V)
ACHFILTER	IQUANT	3	Ach Filter
IERANGELOWERLIMIT	IQUANT	1	I/E Range Lower Limit
IERANGEMODE	TOGGLE	F	I/E AutoRange
IERANGE	IQUANT	6	I/E Range
POSFEEDENABLE	TOGGLE	F	Positive Feedback IR Comp
POSFEEDRESISTANCE	QUANT	0	Positive Feedback Resistance (ohm)
ACHSELECT	IQUANT	0	Ach Select
CABLEID	IQUANT	14	Cable ID
DCCALDATE	LABEL	8/19/2019	DC Calibration Date
ACCALDATE	LABEL	8/19/2019	AC Calibration Date
THERMOSELECT	IQUANT	1	Thermo Select
FRAMEWORKVERSION	QUANT	6.33	Framework Version
INSTRUMENTVERSION	LABEL	3.50	Instrument Version
ZCURVE	TABLE
	Pt	Time	Freq	Zreal	Zimag	Zsig	Zmod	Zphz	Idc	Vdc	IERange
	#	s	Hz	ohm	ohm	V	ohm	°	A	V	#
	0	1	1000078	2496.155	-1901.22	1	3137.742	-37.29505	-2.991911E-006	0.0087947	8
	1	3	794390.6	2877.273	-1854.221	1	3422.986	-32.79922	-5.425917E-007	0.0082183	8
	2	4	630984.4	3234.854	-1764.12	1	3684.617	-28.60574	-4.179754E-006	0.0085813	8
	3	5	501234.4	3552.017	-1591.735	1	3892.358	-24.13817	-1.317506E-006	0.0082089	8
	4	7	398109.4	3816.025	-1426.544	1	4073.951	-20.49724	-1.605209E-006	0.0079849	8
	5	8	316265.6	4012.024	-1256.009	1	4204.033	-17.38331	-5.399954E-007	0.0078729	8
	6	9	251203.1	4156.958	-1091.45	1	4297.855	-14.71151	-6.521973E-007	0.0077947	8
	7	11	199546.9	4300.362	-934.7515	1	4400.781	-12.26338	4.543905E-007	0.0075939	8
	8	12	158578.1	4370.265	-797.1901	1	4442.379	-10.33779	-3.057499E-007	0.0075665	8
	9	14	125953.1	4465.783	-665.6118	1	4515.114	-8.477361	-7.348953E-007	0.0091961	7
	10	15	100078.1	4508.746	-581.6664	1	4546.111	-7.351039	-5.607779E-009	0.0075227	7
	11	16	79453.13	4552.91	-526.6091	1	4583.264	-6.597757	-7.044165E-008	0.0077658	7
	12	18	63140.62	4592.393	-489.389	1	4618.395	-6.082778	1.121379E-007	0.0073908	7
	13	19	50203.12	4628.145	-463.6549	1	4651.312	-5.720894	1.482153E-008	0.0074844	7
	14	20	39890.62	4663.955	-452.8169	1	4685.885	-5.545387	1.100767E-007	0.0073932	7
	15	22	31640.63	4697.862	-455.0974	1	4719.854	-5.533166	-6.588632E-008	0.0076428	7
	16	23	25171.88	4732.586	-469.1177	1	4755.78	-5.660954	-6.152322E-008	0.0076639	7
	17	24	20015.62	4764.471	-487.2652	1	4789.323	-5.839371	-1.016156E-008	0.0075838	7
	18	26	15890.62	4809.611	-535.6627	1	4839.349	-6.355036	1.120129E-007	0.0073844	7
	19	27	12609.37	4853.533	-589.9964	1	4889.261	-6.930881	-2.977359E-008	0.007544	7
	20	28	10078.13	4897.132	-661.2845	1	4941.579	-7.690421	-6.747404E-008	0.0077592	7
	21	30	8015.625	4953.445	-747.8521	1	5009.581	-8.585457	6.087536E-009	0.0075331	7
	22	31	6328.125	5001.718	-862.4958	1	5075.538	-9.78386	-6.78866E-008	0.0077559	7
	23	32	5015.625	5061.644	-1002.683	1	5160.001	-11.20491	1.140554E-007	0.0073785	7
	24	34	3984.375	5131.69	-1179.089	1	5265.405	-12.94004	1.150868E-007	0.0073774	7
	25	35	3170.956	5198.855	-1379.842	1	5378.853	-14.86431	-6.010984E-009	0.007598	7
	26	36	2527.573	5278.965	-1633.647	1	5525.963	-17.19539	-6.800538E-008	0.00775	7
	27	38	1976.103	5378.215	-1973.152	1	5728.745	-20.14701	5.628343E-008	0.0074592	7
	28	39	1577.524	5524.072	-2371.13	1	6011.458	-23.23075	-9.558343E-009	0.0075744	7
	29	40	1265.625	5599.031	-2811.044	1	6265.071	-26.65935	-4.152976E-008	0.0076369	7
	30	42	998.264	5747.491	-3404.995	1	6680.392	-30.64384	7.375144E-008	0.0074004	7
	31	43	796.875	5909.431	-4102.004	1	7193.595	-34.76627	9.461444E-008	0.0074664	7
	32	45	627.7902	6115.789	-4999.896	1	7899.482	-39.26734	-7.209591E-009	0.0075908	7
	33	46	505.5147	6324.315	-6005.958	1	8721.726	-43.521	-7.749378E-009	0.0075956	7
	34	47	397.9953	6609.639	-7359.698	1	9892.04	-48.07345	8.9618E-010	0.0074996	6
	35	49	315.5048	6929.353	-8987.429	1	11348.56	-52.3676	7.940866E-010	0.0075021	6
	36	50	252.4038	7293.983	-10907.69	1	13121.73	-56.2293	1.477065E-009	0.0075011	6
	37	51	198.6229	7768.486	-13455.68	1	15537.2	-60.00049	7.676066E-010	0.0075017	6
	38	53	158.3615	8319.145	-16437.87	1	18423.13	-63.1562	1.054047E-009	0.0074932	6
	39	54	125.558	9032.637	-20192.69	1	22120.88	-65.89998	6.53661E-010	0.0074981	6
	40	55	100.4464	9912.65	-24633.09	1	26552.77	-68.07955	1.637121E-009	0.0074979	6
	41	57	79.00281	11063.68	-30554.65	1	32496.03	-70.09495	1.524431E-010	0.0074963	6
	42	58	63.3446	12656.66	-37507.06	1	39584.98	-71.35316	9.00816E-010	0.0074935	6
	43	59	49.86702	14404.35	-45927.33	1	48133.2	-72.58683	2.67691E-010	0.0074913	6
	44	61	39.72458	17248.75	-56150.45	1	58740.04	-72.92366	7.50759E-010	0.0074971	6
	45	62	31.6723	20903.68	-68652.04	1	71763.96	-73.06517	2.143908E-010	0.0074957	6
	46	64	24.93351	25642.99	-84273.54	1	88088.55	-73.0759	5.337817E-010	0.007495	6
	47	65	19.86229	31765.31	-102043.7	1	106873.6	-72.7091	-1.396292E-011	0.0075042	5
	48	66	15.83615	39455.54	-123532.6	1	129680.5	-72.28683	1.719784E-010	0.007499	5
	49	68	12.40079	52194.68	-151386.3	1	160131.5	-70.97693	-3.196309E-010	0.0074977	5
	50	69	9.93114	65540.29	-179582.4	1	191168.5	-69.94997	4.938101E-010	0.0074957	5
	51	71	7.944915	84603.95	-212319.2	1	228554.7	-68.27394	8.41631E-010	0.0074988	5
	52	72	6.317385	107438.1	-252104.5	1	274043.1	-66.918	-1.37684E-010	0.0075033	5
	53	74	5.008013	137935.5	-296645.4	1	327146.3	-65.06231	7.73898E-011	0.0074888	5
	54	77	3.945707	175984.6	-345441.3	1	387685.7	-63.00349	3.589374E-010	0.007495	5
	55	80	3.158693	219293.2	-396219	1	452856.5	-61.03702	1.566831E-010	0.0075031	5
	56	83	2.504006	271675.9	-452252.6	1	527579.5	-59.00604	1.590961E-010	0.0074859	5
	57	86	1.998082	328436.8	-510053.7	1	606651	-57.22146	-1.858284E-010	0.0075065	5
	58	89	1.584686	395373.7	-572179.8	1	695492.7	-55.35569	1.254961E-010	0.0075483	5
	59	92	1.266892	462041.9	-637977	1	787716.6	-54.08683	-1.514499E-010	0.0075056	5
	60	97	0.999041	538991.5	-715304	1	895640.4	-53.00147	3.316911E-010	0.0075112	5
