EXPLAIN
TAG	EISPOT
TITLE	LABEL	Potentiostatic EIS	Test &Identifier
DATE	LABEL	10/24/2019	Date
TIME	LABEL	8:57:47	Time
NOTES	NOTES	1	&Notes...
	
PSTAT	PSTAT	REF600-11020	Potentiostat
VDC	POTEN	0.00000E+000	T	DC &Voltage (V)
FREQINIT	QUANT	1.00000E+006	Initial Fre&q. (Hz)
FREQFINAL	QUANT	1.00000E+000	Final Fre&q. (Hz)
PTSPERDEC	QUANT	1.00000E+001	Points/&decade
VAC	QUANT	2.50000E+001	AC &Voltage (mV rms)
AREA	QUANT	1.00000E-002	&Area (cm^2)
CONDIT	TWOPARAM	T	5.00000E+000	0.00000E+000	Conditionin&g	Time(s)	E(V)
DELAY	TWOPARAM	T	5.00000E+000	0.00000E+000	Init. De&lay	Time(s)	Stab.(mV/s)
SPEED	SELECTOR	1	&Optimize for:
ZGUESS	QUANT	1.00000E+005	E&stimated Z (ohms)
OCVCURVE	TABLE	19
	Pt	T	Vf	Vm	Ach	Over
	#	s	V vs. Ref.	V	V	bits
	0	0.258333	4.80285E-003	4.80285E-003	5.73166E-004	...........
	1	0.516667	4.80002E-003	4.65513E-003	5.74299E-004	...........
	2	0.775	4.78307E-003	4.53490E-003	5.72499E-004	...........
	3	1.03333	4.73614E-003	4.40678E-003	5.73699E-004	...........
	4	1.29167	4.65149E-003	4.17700E-003	5.74499E-004	...........
	5	1.55	4.53075E-003	4.00572E-003	5.72599E-004	...........
	6	1.80833	4.38296E-003	4.02349E-003	5.69366E-004	...........
	7	2.06667	4.23520E-003	4.11981E-003	5.70766E-004	...........
	8	2.325	4.12636E-003	4.03688E-003	5.78932E-004	...........
	9	2.58333	4.07069E-003	3.94885E-003	5.74632E-004	...........
	10	2.84167	4.04265E-003	3.88136E-003	5.70132E-004	...........
	11	3.1	4.00958E-003	3.87020E-003	5.73032E-004	...........
	12	3.35833	3.95915E-003	3.61137E-003	5.68099E-004	...........
	13	3.61667	3.88854E-003	3.58786E-003	5.70099E-004	...........
	14	3.875	3.80119E-003	3.73206E-003	5.78466E-004	...........
	15	4.13333	3.72108E-003	3.61691E-003	5.78632E-004	...........
	16	4.39167	3.67097E-003	3.55125E-003	5.76199E-004	...........
	17	4.65	3.64209E-003	3.55766E-003	5.67566E-004	...........
	18	4.90833	3.61493E-003	3.55234E-003	5.72399E-004	...........
EOC	QUANT	0.0036149	Open Circuit (V)
PSTATMODEL	IQUANT	4	Pstat Model
PSTATSECTION	LABEL	REF600-11020	Pstat Section
PSTATSERIALNO	LABEL	11020	Pstat Serial Number
CTRLMODE	IQUANT	1	Control Mode
IESTAB	IQUANT	0	I/E Stability
CASPEED	IQUANT	1	Control Amp Speed
CONVENTION	IQUANT	1	Current Convention
ICHRANGE	IQUANT	2	Ich Range
ICHRANGEMODE	TOGGLE	F	Ich Auto Range
ICHOFFSETENABLE	TOGGLE	T	Ich Offset Enable
ICHOFFSET	QUANT	0	Ich Offset (V)
ICHFILTER	IQUANT	3	Ich Filter
VCHRANGE	IQUANT	2	Vch Range
VCHRANGEMODE	TOGGLE	F	Vch Auto Range
VCHOFFSETENABLE	TOGGLE	T	Vch Offset Enable
VCHOFFSET	QUANT	0	Vch Offset (V)
VCHFILTER	IQUANT	3	Vch Filter
ACHRANGE	IQUANT	2	Ach Range
ACHOFFSETENABLE	TOGGLE	F	Ach Offset Enable
ACHOFFSET	QUANT	0	Ach Offset (V)
ACHFILTER	IQUANT	3	Ach Filter
IERANGELOWERLIMIT	IQUANT	1	I/E Range Lower Limit
IERANGEMODE	TOGGLE	F	I/E AutoRange
IERANGE	IQUANT	4	I/E Range
POSFEEDENABLE	TOGGLE	F	Positive Feedback IR Comp
POSFEEDRESISTANCE	QUANT	0	Positive Feedback Resistance (ohm)
ACHSELECT	IQUANT	0	Ach Select
CABLEID	IQUANT	14	Cable ID
DCCALDATE	LABEL	8/19/2019	DC Calibration Date
ACCALDATE	LABEL	8/19/2019	AC Calibration Date
THERMOSELECT	IQUANT	1	Thermo Select
FRAMEWORKVERSION	QUANT	6.33	Framework Version
INSTRUMENTVERSION	LABEL	3.50	Instrument Version
ZCURVE	TABLE
	Pt	Time	Freq	Zreal	Zimag	Zsig	Zmod	Zphz	Idc	Vdc	IERange
	#	s	Hz	ohm	ohm	V	ohm	°	A	V	#
	0	1	1000078	2427.465	-1786.166	1	3013.797	-36.34621	-1.470713E-006	0.0055906	8
	1	3	794390.6	2790.037	-1710.734	1	3272.754	-31.51488	-1.717705E-006	0.0057911	8
	2	4	630984.4	3108.33	-1588.253	1	3490.596	-27.06551	4.706022E-006	0.0044739	8
	3	6	501234.4	3387.936	-1436.858	1	3680.037	-22.9823	-3.268387E-006	0.0055174	8
	4	7	398109.4	3599.637	-1236.734	1	3806.166	-18.96128	-1.699605E-007	0.005256	8
	5	9	316265.6	3758.747	-1073.476	1	3909.031	-15.93903	3.592556E-006	0.004373	8
	6	10	251203.1	3864.071	-925.9469	1	3973.464	-13.47568	-2.478542E-006	0.0053875	8
	7	12	199546.9	3974.022	-796.4499	1	4053.046	-11.33274	1.029233E-006	0.0050135	8
	8	13	158578.1	4026.922	-673.0627	1	4082.783	-9.488748	-9.866237E-008	0.0050073	8
	9	15	125953.1	4103.497	-540.1236	1	4138.891	-7.498463	-2.466795E-007	0.0056711	7
	10	16	100078.1	4137.738	-477.8818	1	4165.243	-6.588101	-4.153925E-008	0.005105	7
	11	17	79453.13	4171.865	-436.0284	1	4194.589	-5.966687	-1.478094E-008	0.0051392	7
	12	19	63140.62	4205.459	-405.6544	1	4224.978	-5.509648	6.963216E-008	0.0049745	7
	13	20	50203.12	4237.423	-386.9243	1	4255.051	-5.21728	3.74793E-008	0.0048918	7
	14	21	39890.62	4266.561	-376.0569	1	4283.102	-5.037063	7.041506E-008	0.0048588	7
	15	23	31640.63	4296.889	-376.4005	1	4313.344	-5.006238	3.115345E-008	0.0049683	7
	16	24	25171.88	4326.661	-386.3464	1	4343.875	-5.102657	-1.35589E-008	0.0051334	7
	17	25	20015.62	4370.979	-403.4556	1	4389.559	-5.273644	-1.120073E-008	0.0050444	7
	18	27	15890.62	4388.947	-437.1541	1	4410.665	-5.688094	1.339948E-008	0.0049402	7
	19	28	12609.37	4418.083	-481.7985	1	4444.275	-6.223597	-6.530969E-008	0.0051111	7
	20	30	10078.13	4450.333	-537.4368	1	4482.667	-6.885881	3.308028E-008	0.0049631	7
	21	31	8015.625	4472.393	-608.6808	1	4513.623	-7.750187	3.732148E-008	0.0048855	7
	22	32	6328.125	4519.775	-715.2881	1	4576.025	-8.992902	7.166521E-008	0.0048474	7
	23	34	5015.625	4560.669	-838.9886	1	4637.198	-10.42369	-3.684113E-009	0.0050309	7
	24	35	3984.375	4609.25	-988.025	1	4713.955	-12.09867	1.16251E-007	0.0048229	7
	25	36	3170.956	4652.489	-1187.249	1	4801.584	-14.31555	-7.04238E-009	0.004962	7
	26	38	2527.573	4708.088	-1421.253	1	4917.932	-16.79774	1.306816E-008	0.004932	7
	27	39	1976.103	4778.645	-1741.995	1	5086.255	-20.02869	-6.40017E-008	0.005097	7
	28	40	1577.524	4865.463	-2077.53	1	5290.45	-23.12226	-2.766081E-008	0.0050294	7
	29	42	1265.625	4938.761	-2531.196	1	5549.623	-27.13589	5.835091E-008	0.0049033	7
	30	43	998.264	5049.562	-3105.382	1	5928.024	-31.5907	-3.478158E-008	0.0050231	7
	31	45	796.875	5176.235	-3776.156	1	6407.243	-36.11142	-2.967876E-008	0.0050256	7
	32	46	627.7902	5337.113	-4650.645	1	7079.072	-41.06819	3.43051E-008	0.0048824	7
	33	47	505.5147	5510.056	-5631.659	1	7878.851	-45.62531	1.180887E-007	0.0048283	7
	34	49	397.9953	5757.652	-6964.979	1	9036.675	-50.42091	6.030879E-009	0.0050235	7
	35	50	315.5048	6059.271	-8564.307	1	10491.05	-54.72049	1.117715E-009	0.0049616	6
	36	51	252.4038	6421.724	-10455.95	1	12270.51	-58.44303	3.431125E-010	0.0049585	6
	37	53	198.6229	6925.208	-12954.91	1	14689.73	-61.87272	1.228795E-009	0.0049607	6
	38	54	158.3615	7551.413	-15864.15	1	17569.72	-64.54533	5.917091E-010	0.0049576	6
	39	55	125.558	8384.978	-19511.29	1	21236.72	-66.74438	1.242629E-009	0.0049625	6
	40	57	100.4464	9426.417	-23792.13	1	25591.46	-68.38658	2.566013E-010	0.0049614	6
	41	58	79.00281	10997.57	-29318.66	1	31313.42	-69.43868	1.602888E-009	0.0049578	6
	42	60	63.3446	13249.72	-35582.57	1	37969.39	-69.5764	5.092046E-010	0.0049524	6
	43	61	49.86702	15524.58	-43939.81	1	46601.71	-70.54093	8.806572E-010	0.0049511	6
	44	62	39.72458	19155.02	-52924.47	1	56284.23	-70.10323	1.122877E-009	0.0049602	6
	45	64	31.6723	23764.35	-63750.12	1	68035.45	-69.55588	1.310289E-009	0.0049581	6
	46	65	24.93351	30150.54	-76802.39	1	82508.55	-68.56638	3.924205E-010	0.0049575	6
	47	67	19.86229	37925.97	-91049.25	1	98632.4	-67.38615	1.245294E-009	0.0049533	6
	48	68	15.83615	48111.07	-106867	1	117197.4	-65.76292	5.707846E-010	0.0049554	5
	49	69	12.40079	60630.55	-126676.7	1	140438.7	-64.42308	1.021385E-009	0.0049586	5
	50	71	9.93114	74276.69	-146708.9	1	164440	-63.14754	5.981897E-010	0.0049624	5
	51	72	7.944915	90895.23	-168454.1	1	191412.5	-61.64939	-5.535987E-012	0.0049551	5
	52	74	6.317385	109401.9	-193665.7	1	222430.2	-60.53787	7.634487E-010	0.0049535	5
	53	76	5.008013	131216.1	-222756.9	1	258531	-59.49956	4.253535E-010	0.0049693	5
	54	79	3.945707	156729.5	-256576.6	1	300658.8	-58.58138	-1.255812E-010	0.0049584	5
	55	81	3.158693	183258.7	-292366.7	1	345053.7	-57.92005	3.728021E-010	0.0049773	5
	56	85	2.504006	214935.9	-336008.5	1	398872.3	-57.39401	-1.086384E-010	0.0049576	5
	57	87	1.998082	251095.3	-382770.2	1	457779.2	-56.73533	-1.290954E-010	0.0049544	5
	58	90	1.584686	289579	-440887.5	1	527482.5	-56.70272	7.640281E-011	0.0050111	5
	59	94	1.266892	333510.7	-504692.8	1	604933.3	-56.5425	-4.1816E-010	0.0049639	5
	60	98	0.999041	385112.1	-579570.1	1	695854	-56.3968	2.653688E-010	0.0049917	5
