EXPLAIN
TAG	EISPOT
TITLE	LABEL	Potentiostatic EIS	Test &Identifier
DATE	LABEL	10/20/2019	Date
TIME	LABEL	10:28:04	Time
NOTES	NOTES	1	&Notes...
	
PSTAT	PSTAT	REF600-11020	Potentiostat
VDC	POTEN	0.00000E+000	T	DC &Voltage (V)
FREQINIT	QUANT	1.00000E+006	Initial Fre&q. (Hz)
FREQFINAL	QUANT	1.00000E+000	Final Fre&q. (Hz)
PTSPERDEC	QUANT	1.00000E+001	Points/&decade
VAC	QUANT	2.50000E+001	AC &Voltage (mV rms)
AREA	QUANT	1.00000E-002	&Area (cm^2)
CONDIT	TWOPARAM	T	5.00000E+000	0.00000E+000	Conditionin&g	Time(s)	E(V)
DELAY	TWOPARAM	T	5.00000E+000	0.00000E+000	Init. De&lay	Time(s)	Stab.(mV/s)
SPEED	SELECTOR	1	&Optimize for:
ZGUESS	QUANT	1.00000E+005	E&stimated Z (ohms)
OCVCURVE	TABLE	19
	Pt	T	Vf	Vm	Ach	Over
	#	s	V vs. Ref.	V	V	bits
	0	0.258333	5.59676E-003	5.59676E-003	5.08067E-004	...........
	1	0.516667	5.59409E-003	5.45663E-003	5.07766E-004	...........
	2	0.775	5.57662E-003	5.27008E-003	5.04133E-004	...........
	3	1.03333	5.52681E-003	5.24822E-003	5.10300E-004	...........
	4	1.29167	5.44095E-003	5.05828E-003	5.06233E-004	...........
	5	1.55	5.33323E-003	5.01135E-003	5.09100E-004	...........
	6	1.80833	5.22039E-003	4.93514E-003	5.07000E-004	...........
	7	2.06667	5.11506E-003	4.88853E-003	5.08633E-004	...........
	8	2.325	5.02594E-003	4.86093E-003	5.05467E-004	...........
	9	2.58333	4.95424E-003	4.73286E-003	5.02633E-004	...........
	10	2.84167	4.89387E-003	4.78842E-003	5.05933E-004	...........
	11	3.1	4.83905E-003	4.64345E-003	5.10667E-004	...........
	12	3.35833	4.78667E-003	4.60838E-003	5.10133E-004	...........
	13	3.61667	4.73176E-003	4.52129E-003	5.09433E-004	...........
	14	3.875	4.67279E-003	4.59331E-003	5.09233E-004	...........
	15	4.13333	4.61885E-003	4.51486E-003	5.12500E-004	...........
	16	4.39167	4.57863E-003	4.47441E-003	5.13900E-004	...........
	17	4.65	4.54960E-003	4.53528E-003	5.10900E-004	...........
	18	4.90833	4.52585E-003	4.40214E-003	5.08467E-004	...........
EOC	QUANT	0.0045258	Open Circuit (V)
PSTATMODEL	IQUANT	4	Pstat Model
PSTATSECTION	LABEL	REF600-11020	Pstat Section
PSTATSERIALNO	LABEL	11020	Pstat Serial Number
CTRLMODE	IQUANT	1	Control Mode
IESTAB	IQUANT	0	I/E Stability
CASPEED	IQUANT	1	Control Amp Speed
CONVENTION	IQUANT	1	Current Convention
ICHRANGE	IQUANT	2	Ich Range
ICHRANGEMODE	TOGGLE	F	Ich Auto Range
ICHOFFSETENABLE	TOGGLE	T	Ich Offset Enable
ICHOFFSET	QUANT	0	Ich Offset (V)
ICHFILTER	IQUANT	3	Ich Filter
VCHRANGE	IQUANT	2	Vch Range
VCHRANGEMODE	TOGGLE	F	Vch Auto Range
VCHOFFSETENABLE	TOGGLE	T	Vch Offset Enable
VCHOFFSET	QUANT	0	Vch Offset (V)
VCHFILTER	IQUANT	3	Vch Filter
ACHRANGE	IQUANT	2	Ach Range
ACHOFFSETENABLE	TOGGLE	F	Ach Offset Enable
ACHOFFSET	QUANT	0	Ach Offset (V)
ACHFILTER	IQUANT	3	Ach Filter
IERANGELOWERLIMIT	IQUANT	1	I/E Range Lower Limit
IERANGEMODE	TOGGLE	F	I/E AutoRange
IERANGE	IQUANT	4	I/E Range
POSFEEDENABLE	TOGGLE	F	Positive Feedback IR Comp
POSFEEDRESISTANCE	QUANT	0	Positive Feedback Resistance (ohm)
ACHSELECT	IQUANT	0	Ach Select
CABLEID	IQUANT	14	Cable ID
DCCALDATE	LABEL	8/19/2019	DC Calibration Date
ACCALDATE	LABEL	8/19/2019	AC Calibration Date
THERMOSELECT	IQUANT	1	Thermo Select
FRAMEWORKVERSION	QUANT	6.33	Framework Version
INSTRUMENTVERSION	LABEL	3.50	Instrument Version
ZCURVE	TABLE
	Pt	Time	Freq	Zreal	Zimag	Zsig	Zmod	Zphz	Idc	Vdc	IERange
	#	s	Hz	ohm	ohm	V	ohm	°	A	V	#
	0	1	1000078	2716.354	-1926.869	1	3330.376	-35.35032	3.618023E-007	0.0063124	8
	1	3	794390.6	3104.092	-1869.654	1	3623.671	-31.06137	1.609651E-006	0.0061011	8
	2	5	630984.4	3463.89	-1769.467	1	3889.672	-27.05942	-1.82182E-006	0.0065799	8
	3	6	501234.4	3769.263	-1598.196	1	4094.09	-22.97731	-3.590857E-006	0.0070195	8
	4	8	398109.4	4024.922	-1441.005	1	4275.102	-19.69842	-1.281765E-007	0.0061177	8
	5	9	316265.6	4230.19	-1252.113	1	4411.609	-16.48846	-4.12603E-007	0.006082	8
	6	11	251203.1	4388.588	-1085.183	1	4520.766	-13.88915	1.488887E-006	0.005585	8
	7	12	199546.9	4506.96	-947.6135	1	4605.503	-11.8738	-3.832637E-007	0.0060574	8
	8	13	158578.1	4599.019	-811.0543	1	4669.987	-10.00149	1.457241E-006	0.0055873	8
	9	15	125953.1	4704.706	-642.5621	1	4748.383	-7.777258	-4.737718E-007	0.0071467	7
	10	16	100078.1	4731.123	-565.3429	1	4764.781	-6.814217	3.79747E-008	0.0059099	7
	11	18	79453.13	4778.036	-515.3936	1	4805.752	-6.156535	8.540615E-008	0.0058539	7
	12	19	63140.62	4814.146	-478.9814	1	4837.916	-5.681919	-5.800019E-009	0.0060843	7
	13	20	50203.12	4852.909	-456.2983	1	4874.314	-5.371485	-4.215809E-008	0.0060589	7
	14	22	39890.62	4887.366	-448.9687	1	4907.944	-5.248639	6.721304E-008	0.0059237	7
	15	23	31640.63	4920.418	-453.0915	1	4941.236	-5.261184	-6.182795E-008	0.0062225	7
	16	24	25171.88	4959.775	-469.1282	1	4981.912	-5.403337	-1.799545E-008	0.0060054	7
	17	26	20015.62	5009.663	-485.139	1	5033.099	-5.531312	-4.045104E-009	0.0061715	7
	18	27	15890.62	5036.271	-538.1267	1	5064.939	-6.098927	9.983469E-008	0.0059655	7
	19	29	12609.37	5080.59	-594.9413	1	5115.306	-6.678966	-7.209588E-009	0.0060564	7
	20	30	10078.13	5127.301	-665.5229	1	5170.313	-7.395634	-9.162983E-009	0.0061762	7
	21	31	8015.625	5198.54	-757.447	1	5253.431	-8.289878	-4.360984E-008	0.0060561	7
	22	33	6328.125	5230.45	-867.3724	1	5301.881	-9.415748	-3.538216E-008	0.0060611	7
	23	34	5015.625	5291.278	-1007.426	1	5386.328	-10.77973	8.753457E-008	0.0058398	7
	24	35	3984.375	5360.55	-1171.686	1	5487.107	-12.32956	4.845896E-008	0.0059772	7
	25	37	3170.956	5429.08	-1386.277	1	5603.273	-14.324	-2.178659E-008	0.0060919	7
	26	38	2527.573	5509.865	-1641.223	1	5749.107	-16.58721	-4.653213E-008	0.0061257	7
	27	40	1976.103	5610.447	-1981.853	1	5950.198	-19.45543	1.454878E-007	0.0058089	7
	28	41	1577.524	5773.502	-2477.652	1	6282.681	-23.2262	-2.010618E-009	0.0061636	7
	29	42	1265.625	5829.561	-2820.738	1	6476.136	-25.82085	1.45529E-007	0.0058071	7
	30	44	998.264	5980.351	-3418.715	1	6888.557	-29.75479	-2.291573E-008	0.0060103	7
	31	45	796.875	6144.203	-4120.778	1	7398.111	-33.84886	-3.833915E-008	0.0060389	7
	32	46	627.7902	6344.346	-5023.045	1	8092.077	-38.36992	-4.126173E-009	0.0060654	7
	33	48	505.5147	6558.684	-6034.09	1	8912.158	-42.61453	-4.408884E-008	0.0061205	7
	34	49	397.9953	6837.498	-7392.807	1	10070	-47.23472	-2.022185E-010	0.0059847	6
	35	51	315.5048	7153.187	-9031.953	1	11521.47	-51.62125	2.054248E-009	0.0059833	6
	36	52	252.4038	7512.851	-10962.41	1	13289.75	-55.57605	-4.0248E-010	0.0059833	6
	37	53	198.6229	7979.653	-13530.03	1	15707.85	-59.46902	1.21044E-009	0.0059836	6
	38	55	158.3615	8521.563	-16539.28	1	18605.51	-62.74104	-2.936655E-010	0.0059842	6
	39	56	125.558	9214.945	-20330.15	1	22321.07	-65.61687	5.453189E-010	0.0059831	6
	40	57	100.4464	10023.47	-24796.35	1	26745.63	-67.98988	8.59573E-010	0.0059795	6
	41	59	79.00281	11371.2	-30811.82	1	32843.15	-69.74325	-3.864287E-010	0.005978	6
	42	60	63.3446	13017.68	-38105.32	1	40267.55	-71.13862	1.681854E-009	0.0059774	6
	43	62	49.86702	14232.16	-46239.66	1	48380.37	-72.89209	1.944077E-009	0.0059798	6
	44	63	39.72458	17247.44	-56779.89	1	59341.64	-73.10333	1.23676E-009	0.0059785	6
	45	64	31.6723	20623.52	-69396.49	1	72396.15	-73.4489	1.333374E-009	0.005984	6
	46	66	24.93351	25607.06	-85205.31	1	88970.03	-73.27271	6.885505E-010	0.0059806	6
	47	67	19.86229	32229.56	-103350.9	1	108259.6	-72.68011	4.706251E-010	0.0059893	5
	48	69	15.83615	38596.08	-124972.9	1	130797.1	-72.83745	-1.145179E-009	0.0059887	5
	49	70	12.40079	50486.83	-151832.6	1	160006.5	-71.60719	-2.440806E-010	0.0059894	5
	50	72	9.93114	66241.94	-181701.7	1	193399.8	-69.96996	-3.773677E-010	0.0059863	5
	51	73	7.944915	84778.61	-215683.7	1	231747.4	-68.54174	9.747091E-010	0.0059913	5
	52	75	6.317385	108105.5	-256303.9	1	278169.9	-67.13065	-1.900299E-010	0.0059916	5
	53	77	5.008013	139403.1	-301863.5	1	332497.8	-65.21211	-1.202643E-011	0.0059793	5
	54	80	3.945707	178546.5	-353402.2	1	395944.4	-63.19609	7.453847E-012	0.0059849	5
	55	82	3.158693	222190	-404303.2	1	461334.4	-61.20844	1.184706E-010	0.0059887	5
	56	86	2.504006	276315.3	-462098.2	1	538409.6	-59.12234	-1.396071E-010	0.0059907	5
	57	89	1.998082	335085.6	-519723.4	1	618380.8	-57.18858	1.987468E-010	0.0059476	5
	58	92	1.584686	400509.7	-586401.4	1	710122.9	-55.66708	-3.050688E-010	0.0059829	5
	59	95	1.266892	472591.4	-648865.6	1	802726.1	-53.93285	1.208992E-010	0.0059449	5
	60	100	0.999041	551644.9	-726248.9	1	912003.1	-52.78039	1.086686E-010	0.0060341	5
