EXPLAIN
TAG	EISPOT
TITLE	LABEL	Potentiostatic IDE	Test &Identifier
DATE	LABEL	9/6/2019	Date
TIME	LABEL	9:13:36	Time
NOTES	NOTES	1	&Notes...
	
PSTAT	PSTAT	REF600-11020	Potentiostat
VDC	POTEN	0.00000E+000	T	DC &Voltage (V)
FREQINIT	QUANT	1.00000E+006	Initial Fre&q. (Hz)
FREQFINAL	QUANT	1.00000E+000	Final Fre&q. (Hz)
PTSPERDEC	QUANT	1.00000E+001	Points/&decade
VAC	QUANT	2.50000E+001	AC &Voltage (mV rms)
AREA	QUANT	1.00000E-002	&Area (cm^2)
CONDIT	TWOPARAM	T	5.00000E+000	0.00000E+000	Conditionin&g	Time(s)	E(V)
DELAY	TWOPARAM	T	5.00000E+000	0.00000E+000	Init. De&lay	Time(s)	Stab.(mV/s)
SPEED	SELECTOR	1	&Optimize for:
ZGUESS	QUANT	1.00000E+007	E&stimated Z (ohms)
OCVCURVE	TABLE	19
	Pt	T	Vf	Vm	Ach	Over
	#	s	V vs. Ref.	V	V	bits
	0	0.258333	8.99719E-003	8.99719E-003	6.33431E-004	...........
	1	0.516667	8.99644E-003	8.95781E-003	6.31565E-004	...........
	2	0.775	8.99234E-003	8.94801E-003	6.29231E-004	...........
	3	1.03333	8.98276E-003	8.95159E-003	6.30498E-004	...........
	4	1.29167	8.97061E-003	8.98311E-003	6.33898E-004	...........
	5	1.55	8.96303E-003	8.98465E-003	6.34931E-004	...........
	6	1.80833	8.96462E-003	9.00981E-003	6.31831E-004	...........
	7	2.06667	8.97475E-003	9.04380E-003	6.31231E-004	...........
	8	2.325	8.99135E-003	9.06712E-003	6.35631E-004	...........
	9	2.58333	9.01327E-003	9.10098E-003	6.35398E-004	...........
	10	2.84167	9.03937E-003	9.13897E-003	6.32365E-004	...........
	11	3.1	9.06880E-003	9.17443E-003	6.34365E-004	...........
	12	3.35833	9.10113E-003	9.21043E-003	6.31398E-004	...........
	13	3.61667	9.13559E-003	9.24217E-003	6.31198E-004	...........
	14	3.875	9.17090E-003	9.28069E-003	6.38398E-004	...........
	15	4.13333	9.20623E-003	9.31313E-003	6.38098E-004	...........
	16	4.39167	9.24134E-003	9.34804E-003	6.36631E-004	...........
	17	4.65	9.27629E-003	9.38568E-003	6.31231E-004	...........
	18	4.90833	9.31126E-003	9.42043E-003	6.34831E-004	...........
EOC	QUANT	0.0093113	Open Circuit (V)
PSTATMODEL	IQUANT	4	Pstat Model
PSTATSECTION	LABEL	REF600-11020	Pstat Section
PSTATSERIALNO	LABEL	11020	Pstat Serial Number
CTRLMODE	IQUANT	1	Control Mode
IESTAB	IQUANT	0	I/E Stability
CASPEED	IQUANT	1	Control Amp Speed
CONVENTION	IQUANT	1	Current Convention
ICHRANGE	IQUANT	2	Ich Range
ICHRANGEMODE	TOGGLE	F	Ich Auto Range
ICHOFFSETENABLE	TOGGLE	T	Ich Offset Enable
ICHOFFSET	QUANT	0	Ich Offset (V)
ICHFILTER	IQUANT	3	Ich Filter
VCHRANGE	IQUANT	2	Vch Range
VCHRANGEMODE	TOGGLE	F	Vch Auto Range
VCHOFFSETENABLE	TOGGLE	T	Vch Offset Enable
VCHOFFSET	QUANT	0	Vch Offset (V)
VCHFILTER	IQUANT	3	Vch Filter
ACHRANGE	IQUANT	2	Ach Range
ACHOFFSETENABLE	TOGGLE	F	Ach Offset Enable
ACHOFFSET	QUANT	0	Ach Offset (V)
ACHFILTER	IQUANT	3	Ach Filter
IERANGELOWERLIMIT	IQUANT	1	I/E Range Lower Limit
IERANGEMODE	TOGGLE	F	I/E AutoRange
IERANGE	IQUANT	3	I/E Range
POSFEEDENABLE	TOGGLE	F	Positive Feedback IR Comp
POSFEEDRESISTANCE	QUANT	0	Positive Feedback Resistance (ohm)
ACHSELECT	IQUANT	0	Ach Select
CABLEID	IQUANT	14	Cable ID
DCCALDATE	LABEL	8/19/2019	DC Calibration Date
ACCALDATE	LABEL	8/19/2019	AC Calibration Date
THERMOSELECT	IQUANT	1	Thermo Select
FRAMEWORKVERSION	QUANT	6.33	Framework Version
INSTRUMENTVERSION	LABEL	3.50	Instrument Version
ZCURVE	TABLE
	Pt	Time	Freq	Zreal	Zimag	Zsig	Zmod	Zphz	Idc	Vdc	IERange
	#	s	Hz	ohm	ohm	V	ohm	°	A	V	#
	0	2	1000078	2463.086	-1690.535	1	2987.424	-34.46369	5.637854E-007	0.0113385	8
	1	3	794390.6	2795.857	-1602.321	1	3222.46	-29.81726	-1.54755E-006	0.0114589	8
	2	4	630984.4	3093.214	-1467.531	1	3423.685	-25.38134	-3.36937E-007	0.0112994	8
	3	6	501234.4	3337.561	-1304.998	1	3583.62	-21.35568	-5.742057E-007	0.0111827	8
	4	7	398109.4	3515.031	-1133.389	1	3693.239	-17.87143	2.945223E-007	0.0108748	8
	5	8	316265.6	3645.787	-976.28	1	3774.24	-14.99111	1.346344E-006	0.0105793	8
	6	10	251203.1	3767.159	-854.7019	1	3862.901	-12.783	-8.90296E-007	0.0111485	8
	7	11	199546.9	3842.602	-748.4124	1	3914.807	-11.02135	-4.153129E-007	0.0111227	8
	8	13	158578.1	3901.302	-640.6798	1	3953.559	-9.325988	-4.431257E-007	0.0111108	8
	9	14	125953.1	3962.252	-560.6971	1	4001.727	-8.054431	4.017691E-007	0.0103603	7
	10	15	100078.1	3997.485	-512.7292	1	4030.233	-7.30902	4.67587E-008	0.0108091	7
	11	17	79453.13	4038.433	-490.0071	1	4068.052	-6.91822	-1.574979E-008	0.0109689	7
	12	18	63140.62	4079.517	-477.8518	1	4107.408	-6.680864	-1.715938E-008	0.0108774	7
	13	19	50203.12	4118.433	-476.8623	1	4145.949	-6.604713	2.564329E-008	0.0107854	7
	14	21	39890.62	4161.382	-488.3195	1	4189.935	-6.692795	-2.641221E-008	0.0109035	7
	15	22	31640.63	4201.004	-512.5787	1	4232.16	-6.956467	-1.384957E-008	0.0108678	7
	16	23	25171.88	4246.878	-548.5934	1	4282.164	-7.360463	1.328068E-008	0.010823	7
	17	24	20015.62	4293.322	-595.954	1	4334.487	-7.902701	4.63649E-008	0.010789	7
	18	26	15890.62	4348.133	-656.6427	1	4397.436	-8.587754	1.519657E-008	0.0108616	7
	19	27	12609.37	4402.498	-738.6804	1	4464.038	-9.52475	-2.465571E-008	0.0108831	7
	20	28	10078.13	4462.962	-836.5644	1	4540.691	-10.61667	4.979505E-008	0.010773	7
	21	30	8015.625	4530.19	-951.854	1	4629.109	-11.86601	5.042169E-008	0.0107745	7
	22	31	6328.125	4607.108	-1103.12	1	4737.333	-13.46532	5.224909E-009	0.0108295	7
	23	32	5015.625	4692.637	-1283.137	1	4864.903	-15.29293	-1.224307E-008	0.0109568	7
	24	34	3984.375	4789.914	-1504.255	1	5020.563	-17.43471	-3.518527E-008	0.0109188	7
	25	35	3170.956	4904.389	-1765.663	1	5212.542	-19.79974	-1.001935E-008	0.0108652	7
	26	36	2527.573	5020.589	-2079.808	1	5434.327	-22.50206	-8.548827E-009	0.0108681	7
	27	38	1976.103	5184.297	-2492.616	1	5752.397	-25.67831	-1.168365E-008	0.0109483	7
	28	39	1577.524	5352.652	-2950.585	1	6112.024	-28.86522	1.154045E-009	0.0108898	7
	29	40	1265.625	5544.933	-3482.339	1	6547.745	-32.12972	-7.46996E-009	0.0109003	7
	30	42	998.264	5780.149	-4182.705	1	7134.784	-35.89073	-2.899676E-008	0.0109392	7
	31	43	796.875	6051.361	-4972.762	1	7832.454	-39.41198	-2.393126E-008	0.0108809	7
	32	44	627.7902	6381.914	-5992.915	1	8754.647	-43.19952	-1.237486E-008	0.0108596	7
	33	46	505.5147	6737.163	-7098.545	1	9786.66	-46.4962	-1.456502E-009	0.0107648	6
	34	47	397.9953	7183.273	-8582.71	1	11192.07	-50.07246	4.994522E-010	0.0108238	6
	35	48	315.5048	7699.563	-10338.15	1	12890.33	-53.32229	6.567442E-010	0.0108183	6
	36	50	252.4038	8285.688	-12382.57	1	14899.02	-56.21188	8.988745E-010	0.0108164	6
	37	51	198.6229	9035.701	-15053.15	1	17556.8	-59.02559	9.182043E-010	0.0108198	6
	38	52	158.3615	9891.24	-18129.15	1	20651.94	-61.38318	4.941498E-010	0.0108184	6
	39	54	125.558	10950.56	-21954.52	1	24533.97	-63.49072	7.849216E-010	0.0108191	6
	40	55	100.4464	12194.05	-26412.28	1	29091.29	-65.21812	5.070609E-010	0.0108136	6
	41	56	79.00281	13812.51	-32221.72	1	35057.45	-66.79659	8.215439E-010	0.0108184	6
	42	58	63.3446	15782.68	-38687.66	1	41783.11	-67.80693	5.245184E-010	0.0108158	6
	43	59	49.86702	18071.71	-47253.97	1	50591.74	-69.07124	5.751518E-010	0.0108144	6
	44	60	39.72458	21004.03	-56934.67	1	60685.47	-69.75024	6.384408E-010	0.0108194	6
	45	62	31.6723	24454.22	-68676.05	1	72899.99	-70.40016	6.623526E-010	0.010813	6
	46	63	24.93351	29021.52	-83573.71	1	88469.28	-70.85011	6.87958E-010	0.0108137	6
	47	64	19.86229	34349.85	-100758.4	1	106452.6	-71.17509	3.690981E-010	0.0108248	5
	48	66	15.83615	40684.53	-121368.3	1	128005.8	-71.46805	3.612437E-010	0.0108228	5
	49	67	12.40079	49762.88	-148330.3	1	156455.1	-71.45406	6.447274E-010	0.0108194	5
	50	68	9.93114	60078.16	-177964.4	1	187831.6	-71.34607	2.43216E-010	0.0108266	5
	51	70	7.944915	73062.58	-213394.1	1	225555.3	-71.09966	4.265794E-010	0.0108267	5
	52	72	6.317385	89840.84	-256628.2	1	271899.6	-70.70578	4.023977E-010	0.0108296	5
	53	73	5.008013	111736.3	-309587.5	1	329134.4	-70.15447	9.316255E-011	0.010816	5
	54	76	3.945707	141680.2	-372851.4	1	398862.7	-69.19365	2.583505E-010	0.010822	5
	55	78	3.158693	176229.3	-442320.6	1	476134.7	-68.27669	-4.559754E-012	0.0108082	5
	56	82	2.504006	222691.1	-524880.6	1	570167.4	-67.00994	4.28849E-010	0.0108189	5
	57	84	1.998082	279412.4	-616209.7	1	676598.6	-65.6087	2.050878E-010	0.010862	5
	58	87	1.584686	348959.6	-720370.1	1	800441.1	-64.15366	2.11641E-010	0.010831	5
	59	91	1.266892	433645.2	-832485.1	1	938658.4	-62.48479	1.109077E-011	0.0108593	5
	60	95	0.999041	536078.4	-962601	1	1101808	-60.88629	1.697678E-010	0.0107973	4
