EXPLAIN
TAG	EISPOT
TITLE	LABEL	Potentiostatic EIS	Test &Identifier
DATE	LABEL	10/8/2019	Date
TIME	LABEL	10:04:16	Time
NOTES	NOTES	2	&Notes...
	
	
PSTAT	PSTAT	REF600-11020	Potentiostat
VDC	POTEN	0.00000E+000	T	DC &Voltage (V)
FREQINIT	QUANT	1.00000E+006	Initial Fre&q. (Hz)
FREQFINAL	QUANT	1.00000E+000	Final Fre&q. (Hz)
PTSPERDEC	QUANT	1.00000E+001	Points/&decade
VAC	QUANT	2.50000E+001	AC &Voltage (mV rms)
AREA	QUANT	1.00000E-002	&Area (cm^2)
CONDIT	TWOPARAM	T	5.00000E+000	0.00000E+000	Conditionin&g	Time(s)	E(V)
DELAY	TWOPARAM	T	5.00000E+000	0.00000E+000	Init. De&lay	Time(s)	Stab.(mV/s)
SPEED	SELECTOR	1	&Optimize for:
ZGUESS	QUANT	1.00000E+004	E&stimated Z (ohms)
OCVCURVE	TABLE	19
	Pt	T	Vf	Vm	Ach	Over
	#	s	V vs. Ref.	V	V	bits
	0	0.258333	8.74710E-003	8.74710E-003	5.27933E-004	...........
	1	0.516667	8.74356E-003	8.56216E-003	5.28866E-004	...........
	2	0.775	8.72259E-003	8.42482E-003	5.33833E-004	...........
	3	1.03333	8.66571E-003	8.29403E-003	5.36166E-004	...........
	4	1.29167	8.57002E-003	8.23882E-003	5.36766E-004	...........
	5	1.55	8.45470E-003	8.16022E-003	5.27700E-004	...........
	6	1.80833	8.34262E-003	8.02831E-003	5.37066E-004	...........
	7	2.06667	8.24319E-003	8.04875E-003	5.33033E-004	...........
	8	2.325	8.15792E-003	7.99773E-003	5.32366E-004	...........
	9	2.58333	8.09080E-003	8.00117E-003	5.35000E-004	...........
	10	2.84167	8.04437E-003	7.97976E-003	5.31133E-004	...........
	11	3.1	8.01510E-003	7.97597E-003	5.31433E-004	...........
	12	3.35833	7.99706E-003	7.97574E-003	5.36366E-004	...........
	13	3.61667	7.98576E-003	7.96874E-003	5.38066E-004	...........
	14	3.875	7.97841E-003	7.95607E-003	5.34333E-004	...........
	15	4.13333	7.97263E-003	7.95716E-003	5.33333E-004	...........
	16	4.39167	7.96700E-003	7.95577E-003	5.31566E-004	...........
	17	4.65	7.96227E-003	7.97337E-003	5.29666E-004	...........
	18	4.90833	7.96061E-003	7.98134E-003	5.34200E-004	...........
EOC	QUANT	0.0079606	Open Circuit (V)
PSTATMODEL	IQUANT	4	Pstat Model
PSTATSECTION	LABEL	REF600-11020	Pstat Section
PSTATSERIALNO	LABEL	11020	Pstat Serial Number
CTRLMODE	IQUANT	1	Control Mode
IESTAB	IQUANT	0	I/E Stability
CASPEED	IQUANT	1	Control Amp Speed
CONVENTION	IQUANT	1	Current Convention
ICHRANGE	IQUANT	2	Ich Range
ICHRANGEMODE	TOGGLE	F	Ich Auto Range
ICHOFFSETENABLE	TOGGLE	T	Ich Offset Enable
ICHOFFSET	QUANT	0	Ich Offset (V)
ICHFILTER	IQUANT	3	Ich Filter
VCHRANGE	IQUANT	2	Vch Range
VCHRANGEMODE	TOGGLE	F	Vch Auto Range
VCHOFFSETENABLE	TOGGLE	T	Vch Offset Enable
VCHOFFSET	QUANT	0	Vch Offset (V)
VCHFILTER	IQUANT	3	Vch Filter
ACHRANGE	IQUANT	2	Ach Range
ACHOFFSETENABLE	TOGGLE	F	Ach Offset Enable
ACHOFFSET	QUANT	0	Ach Offset (V)
ACHFILTER	IQUANT	3	Ach Filter
IERANGELOWERLIMIT	IQUANT	1	I/E Range Lower Limit
IERANGEMODE	TOGGLE	F	I/E AutoRange
IERANGE	IQUANT	6	I/E Range
POSFEEDENABLE	TOGGLE	F	Positive Feedback IR Comp
POSFEEDRESISTANCE	QUANT	0	Positive Feedback Resistance (ohm)
ACHSELECT	IQUANT	0	Ach Select
CABLEID	IQUANT	14	Cable ID
DCCALDATE	LABEL	8/19/2019	DC Calibration Date
ACCALDATE	LABEL	8/19/2019	AC Calibration Date
THERMOSELECT	IQUANT	1	Thermo Select
FRAMEWORKVERSION	QUANT	6.33	Framework Version
INSTRUMENTVERSION	LABEL	3.50	Instrument Version
ZCURVE	TABLE
	Pt	Time	Freq	Zreal	Zimag	Zsig	Zmod	Zphz	Idc	Vdc	IERange
	#	s	Hz	ohm	ohm	V	ohm	°	A	V	#
	0	2	1000078	2661.062	-1967.969	1	3309.705	-36.48451	3.962655E-006	0.0098216	8
	1	4	794390.6	3067.441	-1945.055	1	3632.139	-32.37866	-5.518925E-006	0.0108219	8
	2	5	630984.4	3429.075	-1866.246	1	3904.028	-28.55688	-2.465633E-006	0.0105868	8
	3	6	501234.4	3742.138	-1716.804	1	4117.161	-24.64453	3.618778E-006	0.0089637	8
	4	8	398109.4	3996.726	-1563.418	1	4291.631	-21.36418	-1.607104E-006	0.0098958	8
	5	9	316265.6	4224.539	-1433.024	1	4460.974	-18.73767	-4.759526E-006	0.0107157	8
	6	11	251203.1	4420.33	-1268.694	1	4598.793	-16.01419	4.381486E-006	0.0087808	8
	7	12	199546.9	4538.661	-1137.331	1	4678.992	-14.06791	-4.736044E-006	0.0106557	8
	8	14	158578.1	4688.354	-1039.297	1	4802.166	-12.499	-2.895551E-006	0.0101575	8
	9	15	125953.1	4825.971	-900.9233	1	4909.344	-10.57439	-6.523213E-007	0.0115537	7
	10	17	100078.1	4885.674	-848.3341	1	4958.778	-9.85046	-9.274E-008	0.0096878	7
	11	18	79453.13	4965.434	-825.9869	1	5033.666	-9.444522	7.265754E-008	0.0094114	7
	12	20	63140.62	5042.441	-817.6774	1	5108.308	-9.210853	8.486295E-009	0.0094472	7
	13	21	50203.12	5119.365	-827.2451	1	5185.772	-9.179157	-3.583536E-008	0.0095362	7
	14	22	39890.62	5194.729	-856.9667	1	5264.94	-9.367629	5.088896E-008	0.0093697	7
	15	24	31640.63	5283.456	-906.5114	1	5360.66	-9.73575	-2.944385E-008	0.0096039	7
	16	25	25171.88	5376.559	-972.904	1	5463.875	-10.25685	-4.615864E-008	0.0096181	7
	17	26	20015.62	5471.239	-1060.668	1	5573.103	-10.97141	-9.322285E-008	0.0096791	7
	18	28	15890.62	5581.531	-1165.006	1	5701.818	-11.7898	-1.556227E-008	0.0094786	7
	19	29	12609.37	5708.822	-1291.869	1	5853.168	-12.7509	-5.595531E-008	0.0095578	7
	20	30	10078.13	5841.79	-1441.431	1	6016.996	-13.86057	-1.761965E-009	0.0095277	7
	21	32	8015.625	5989.283	-1620.902	1	6204.743	-15.14342	4.659994E-008	0.0093604	7
	22	33	6328.125	6170.9	-1835.373	1	6438.059	-16.56373	-9.361905E-008	0.0096758	7
	23	34	5015.625	6365.653	-2081.621	1	6697.364	-18.10817	-6.3033E-008	0.0097151	7
	24	36	3984.375	6605.385	-2354.758	1	7012.56	-19.62068	-3.485682E-008	0.0095209	7
	25	37	3170.956	6835.922	-2693.605	1	7347.472	-21.50627	-1.565966E-008	0.0094806	7
	26	38	2527.573	7121.485	-3077.442	1	7757.977	-23.37086	-1.451936E-008	0.0094782	7
	27	40	1976.103	7458.705	-3549.947	1	8260.411	-25.45197	-9.215042E-008	0.0096754	7
	28	41	1577.524	7815.212	-4034.092	1	8794.967	-27.30208	-3.514278E-008	0.0095237	7
	29	42	1265.625	8228.284	-4592.307	1	9423.054	-29.16643	6.759866E-011	0.0094395	6
	30	44	998.264	8706.512	-5288.542	1	10186.86	-31.27549	-2.492605E-009	0.0095759	6
	31	45	796.875	9210.43	-6039.229	1	11013.82	-33.25264	-8.522115E-010	0.0094351	6
	32	47	627.7902	9790.65	-6967.871	1	12016.99	-35.43894	4.893384E-009	0.0093234	6
	33	48	505.5147	10341.84	-7941.43	1	13039.17	-37.52042	-1.182193E-008	0.0095411	6
	34	49	397.9953	10971.28	-9227.252	1	14335.66	-40.06507	5.937889E-010	0.0094755	6
	35	51	315.5048	11601.74	-10750.82	1	15817.1	-42.8199	4.812774E-010	0.0094776	6
	36	52	252.4038	12219.04	-12554.14	1	17518.88	-45.77497	2.335481E-010	0.0094661	6
	37	53	198.6229	12910.87	-14967.08	1	19766.24	-49.21836	3.257395E-010	0.0094684	6
	38	55	158.3615	13612.48	-17831.79	1	22433.73	-52.64251	7.602462E-010	0.0094691	6
	39	56	125.558	14423.15	-21506.74	1	25895.31	-56.15285	4.985977E-010	0.0094711	6
	40	58	100.4464	15373.42	-25902.55	1	30121.16	-59.31044	6.084136E-010	0.0094726	6
	41	59	79.00281	16562.65	-31847.53	1	35896.89	-62.52283	6.93916E-010	0.0094712	6
	42	60	63.3446	17589.26	-38586.83	1	42406.67	-65.4948	4.363833E-010	0.0094674	6
	43	62	49.86702	19806.69	-47211.79	1	51198.22	-67.24056	-1.828454E-011	0.0094671	6
	44	63	39.72458	22155.44	-57912.34	1	62005.66	-69.06473	4.499402E-010	0.0094679	6
	45	65	31.6723	25270.08	-70533.53	1	74923.66	-70.28889	1.069463E-010	0.0094635	6
	46	66	24.93351	29563.3	-87099.34	1	91979.8	-71.25173	5.842887E-010	0.0094589	6
	47	67	19.86229	35067.5	-106112.3	1	111756.7	-71.71255	4.252203E-011	0.009473	5
	48	69	15.83615	42421.96	-129089.1	1	135880.9	-71.80817	-2.116306E-010	0.0094684	5
	49	70	12.40079	51515.49	-157615.5	1	165820.7	-71.90039	-3.75987E-010	0.0094744	5
	50	71	9.93114	64721.31	-190450.2	1	201147	-71.23053	-1.856162E-010	0.0094761	5
	51	73	7.944915	81005.78	-228123.1	1	242078.7	-70.45021	5.609957E-010	0.0094725	5
	52	75	6.317385	101382.9	-274035.6	1	292188.3	-69.69742	-1.249595E-010	0.0094747	5
	53	77	5.008013	129453.1	-327503.1	1	352159.6	-68.43246	-2.836312E-011	0.0094671	5
	54	79	3.945707	165137.5	-390417.7	1	423906.1	-67.07278	-1.088088E-011	0.0094719	5
	55	82	3.158693	206958.2	-456640.1	1	501350	-65.61904	1.837394E-010	0.0094848	5
	56	85	2.504006	259959.7	-533848.5	1	593778.8	-64.03604	-1.661646E-010	0.009471	5
	57	88	1.998082	320189.3	-615768.4	1	694040.3	-62.52632	-1.151372E-011	0.009443	5
	58	91	1.584686	393198.4	-706511.6	1	808556.4	-60.90253	8.478097E-011	0.0095181	5
	59	95	1.266892	471051.3	-805982.9	1	933540.4	-59.69614	-4.098526E-011	0.0094699	5
	60	99	0.999041	565843.1	-923894.1	1	1083402	-58.51443	2.149027E-010	0.0094795	4
