EXPLAIN
TAG	EISPOT
TITLE	LABEL	Potentiostatic EIS	Test &Identifier
DATE	LABEL	10/4/2019	Date
TIME	LABEL	9:37:51	Time
NOTES	NOTES	2	&Notes...
	
	
PSTAT	PSTAT	REF600-11020	Potentiostat
VDC	POTEN	0.00000E+000	T	DC &Voltage (V)
FREQINIT	QUANT	1.00000E+006	Initial Fre&q. (Hz)
FREQFINAL	QUANT	1.00000E+000	Final Fre&q. (Hz)
PTSPERDEC	QUANT	1.00000E+001	Points/&decade
VAC	QUANT	2.50000E+001	AC &Voltage (mV rms)
AREA	QUANT	1.00000E-002	&Area (cm^2)
CONDIT	TWOPARAM	T	5.00000E+000	0.00000E+000	Conditionin&g	Time(s)	E(V)
DELAY	TWOPARAM	T	5.00000E+000	0.00000E+000	Init. De&lay	Time(s)	Stab.(mV/s)
SPEED	SELECTOR	1	&Optimize for:
ZGUESS	QUANT	1.00000E+004	E&stimated Z (ohms)
OCVCURVE	TABLE	19
	Pt	T	Vf	Vm	Ach	Over
	#	s	V vs. Ref.	V	V	bits
	0	0.258333	4.96975E-003	4.96975E-003	5.75399E-004	...........
	1	0.516667	4.96650E-003	4.79941E-003	5.77832E-004	...........
	2	0.775	4.94668E-003	4.64676E-003	5.76332E-004	...........
	3	1.03333	4.89153E-003	4.51777E-003	5.77999E-004	...........
	4	1.29167	4.79553E-003	4.40189E-003	5.75532E-004	...........
	5	1.55	4.67302E-003	4.29251E-003	5.77299E-004	...........
	6	1.80833	4.54412E-003	4.19970E-003	5.77832E-004	...........
	7	2.06667	4.42208E-003	4.11463E-003	5.84232E-004	...........
	8	2.325	4.31196E-003	4.03641E-003	5.79232E-004	...........
	9	2.58333	4.21390E-003	3.96159E-003	5.76699E-004	...........
	10	2.84167	4.12600E-003	3.90143E-003	5.75666E-004	...........
	11	3.1	4.04640E-003	3.83553E-003	5.79199E-004	...........
	12	3.35833	3.97359E-003	3.77240E-003	5.79199E-004	...........
	13	3.61667	3.90601E-003	3.72282E-003	5.77466E-004	...........
	14	3.875	3.84261E-003	3.67046E-003	5.78699E-004	...........
	15	4.13333	3.78330E-003	3.62151E-003	5.74999E-004	...........
	16	4.39167	3.72800E-003	3.57470E-003	5.80799E-004	...........
	17	4.65	3.67587E-003	3.52014E-003	5.83265E-004	...........
	18	4.90833	3.62554E-003	3.47210E-003	5.80999E-004	...........
EOC	QUANT	0.0036255	Open Circuit (V)
PSTATMODEL	IQUANT	4	Pstat Model
PSTATSECTION	LABEL	REF600-11020	Pstat Section
PSTATSERIALNO	LABEL	11020	Pstat Serial Number
CTRLMODE	IQUANT	1	Control Mode
IESTAB	IQUANT	0	I/E Stability
CASPEED	IQUANT	1	Control Amp Speed
CONVENTION	IQUANT	1	Current Convention
ICHRANGE	IQUANT	2	Ich Range
ICHRANGEMODE	TOGGLE	F	Ich Auto Range
ICHOFFSETENABLE	TOGGLE	T	Ich Offset Enable
ICHOFFSET	QUANT	0	Ich Offset (V)
ICHFILTER	IQUANT	3	Ich Filter
VCHRANGE	IQUANT	2	Vch Range
VCHRANGEMODE	TOGGLE	F	Vch Auto Range
VCHOFFSETENABLE	TOGGLE	T	Vch Offset Enable
VCHOFFSET	QUANT	0	Vch Offset (V)
VCHFILTER	IQUANT	3	Vch Filter
ACHRANGE	IQUANT	2	Ach Range
ACHOFFSETENABLE	TOGGLE	F	Ach Offset Enable
ACHOFFSET	QUANT	0	Ach Offset (V)
ACHFILTER	IQUANT	3	Ach Filter
IERANGELOWERLIMIT	IQUANT	1	I/E Range Lower Limit
IERANGEMODE	TOGGLE	F	I/E AutoRange
IERANGE	IQUANT	5	I/E Range
POSFEEDENABLE	TOGGLE	F	Positive Feedback IR Comp
POSFEEDRESISTANCE	QUANT	0	Positive Feedback Resistance (ohm)
ACHSELECT	IQUANT	0	Ach Select
CABLEID	IQUANT	14	Cable ID
DCCALDATE	LABEL	8/19/2019	DC Calibration Date
ACCALDATE	LABEL	8/19/2019	AC Calibration Date
THERMOSELECT	IQUANT	1	Thermo Select
FRAMEWORKVERSION	QUANT	6.33	Framework Version
INSTRUMENTVERSION	LABEL	3.50	Instrument Version
ZCURVE	TABLE
	Pt	Time	Freq	Zreal	Zimag	Zsig	Zmod	Zphz	Idc	Vdc	IERange
	#	s	Hz	ohm	ohm	V	ohm	°	A	V	#
	0	2	1000078	2556.446	-1552.418	1	2990.889	-31.26849	2.192561E-006	0.0060701	8
	1	3	794390.6	2854.937	-1456.87	1	3205.173	-27.03515	3.859389E-007	0.0057225	8
	2	5	630984.4	3115.525	-1318.649	1	3383.095	-22.94056	2.598543E-006	0.0049458	8
	3	6	501234.4	3321.645	-1160.505	1	3518.536	-19.25821	2.44723E-007	0.0052141	8
	4	7	398109.4	3485.013	-1009.757	1	3628.35	-16.15856	-2.292312E-006	0.0058004	8
	5	9	316265.6	3595.67	-864.2385	1	3698.074	-13.51498	2.574787E-006	0.0048661	8
	6	10	251203.1	3677.721	-726.2896	1	3748.75	-11.17123	3.540339E-006	0.004696	8
	7	11	199546.9	3726.383	-624.2279	1	3778.305	-9.50965	2.186801E-006	0.0048172	8
	8	13	158578.1	3784.98	-555.5785	1	3825.538	-8.350533	3.525091E-006	0.0047016	8
	9	14	125953.1	3849.381	-447.2602	1	3875.277	-6.627488	5.309992E-007	0.0037834	7
	10	15	100078.1	3874.995	-384.5375	1	3894.028	-5.667228	9.209842E-009	0.0053969	7
	11	17	79453.13	3903.256	-358.3663	1	3919.673	-5.245742	-5.137026E-008	0.0053938	7
	12	18	63140.62	3930.804	-340.5175	1	3945.525	-4.951056	-6.580822E-008	0.0053678	7
	13	19	50203.12	3957.591	-329.9746	1	3971.323	-4.766163	6.643849E-009	0.0052476	7
	14	21	39890.62	3983.73	-328.0334	1	3997.213	-4.707302	-9.137964E-009	0.0053037	7
	15	22	31640.63	4011.97	-335.0769	1	4025.938	-4.774223	8.833236E-009	0.0052487	7
	16	23	25171.88	4039.143	-350.0907	1	4054.287	-4.953702	-8.635787E-008	0.0055226	7
	17	25	20015.62	4065.681	-372.7794	1	4082.735	-5.23876	-8.487017E-008	0.0055188	7
	18	26	15890.62	4095.594	-406.4696	1	4115.715	-5.667792	1.049229E-007	0.0051853	7
	19	28	12609.37	4125.726	-450.2467	1	4150.221	-6.228128	-1.101636E-008	0.0052701	7
	20	29	10078.13	4156.746	-506.6623	1	4187.511	-6.949454	-1.574824E-008	0.005343	7
	21	30	8015.625	4186.529	-583.062	1	4226.936	-7.928638	-9.103601E-009	0.0052953	7
	22	32	6328.125	4225.785	-677.7516	1	4279.79	-9.111773	8.861284E-008	0.0050927	7
	23	33	5015.625	4264.744	-797.9153	1	4338.745	-10.59728	5.844312E-008	0.0051752	7
	24	34	3984.375	4305.597	-945.8477	1	4408.264	-12.38986	-8.491235E-008	0.0055176	7
	25	36	3170.956	4359.117	-1126.353	1	4502.285	-14.48778	2.45557E-008	0.005177	7
	26	37	2527.573	4417.135	-1348.913	1	4618.511	-16.98172	5.878065E-008	0.0051702	7
	27	38	1976.103	4493.501	-1647.224	1	4785.907	-20.13188	-9.259895E-009	0.0052642	7
	28	40	1577.524	4574.112	-1980.897	1	4984.622	-23.41585	-1.551852E-008	0.0053415	7
	29	41	1265.625	4669.277	-2379.916	1	5240.815	-27.00779	-8.562495E-008	0.0055187	7
	30	42	998.264	4790.683	-2902.429	1	5601.316	-31.20952	1.078539E-008	0.0053708	7
	31	44	796.875	4929.489	-3506.876	1	6049.631	-35.42834	-8.711267E-008	0.0055273	7
	32	45	627.7902	5098.194	-4291.048	1	6663.683	-40.08665	-8.803293E-008	0.005402	7
	33	46	505.5147	5266.409	-5161.524	1	7374.035	-44.42373	-1.141878E-008	0.0052091	7
	34	48	397.9953	5516.236	-6336.083	1	8400.882	-48.95695	4.177668E-009	0.0052923	7
	35	49	315.5048	5791.666	-7750.241	1	9675.21	-53.22966	4.480222E-009	0.0052935	7
	36	50	252.4038	6115.114	-9420.034	1	11230.83	-57.00996	5.341285E-010	0.0052277	6
	37	52	198.6229	6542.465	-11633.65	1	13347.12	-60.64772	1.080925E-009	0.0052295	6
	38	53	158.3615	7053.062	-14220.62	1	15873.62	-63.61977	9.899841E-010	0.0052265	6
	39	54	125.558	7719.984	-17468.58	1	19098.42	-66.15767	1.029246E-009	0.0052332	6
	40	56	100.4464	8563.551	-21290.35	1	22948.06	-68.08868	1.188651E-009	0.0052249	6
	41	57	79.00281	9739.49	-26311.35	1	28056.1	-69.68731	1.261175E-009	0.0052306	6
	42	59	63.3446	10955.5	-31906.3	1	33734.78	-71.04932	7.236025E-010	0.0052283	6
	43	60	49.86702	13251.12	-39311.52	1	41484.79	-71.37208	1.00958E-009	0.0052273	6
	44	61	39.72458	15673.56	-47954.12	1	50450.55	-71.90028	1.196713E-009	0.0052309	6
	45	63	31.6723	18908.39	-58048.96	1	61050.88	-71.95792	9.919465E-010	0.0052348	6
	46	64	24.93351	23361.21	-71011.06	1	74755.05	-71.78983	7.429957E-010	0.0052307	6
	47	65	19.86229	28850.43	-85713.19	1	90438.37	-71.39714	1.199858E-009	0.0052308	6
	48	67	15.83615	36101.95	-102942.3	1	109089.3	-70.67419	1.431442E-009	0.005229	5
	49	68	12.40079	46026	-124080.7	1	132342	-69.64837	1.484319E-009	0.0052347	5
	50	70	9.93114	56926.77	-147636.7	1	158231.7	-68.91402	7.829357E-010	0.0052327	5
	51	71	7.944915	71148.71	-174598.4	1	188538.5	-67.82915	1.985084E-010	0.0052358	5
	52	73	6.317385	88787.63	-206345.5	1	224636.9	-66.71846	-6.643166E-011	0.0052453	5
	53	75	5.008013	111257.1	-242764	1	267044	-65.37833	1.761348E-010	0.0052299	5
	54	77	3.945707	139224	-285247.5	1	317410.6	-63.98385	4.65869E-010	0.0052375	5
	55	80	3.158693	170926.6	-329843.3	1	371500.4	-62.60657	9.187336E-011	0.0052357	5
	56	83	2.504006	209521.3	-381249.8	1	435029.3	-61.20837	2.487569E-010	0.0052185	5
	57	86	1.998082	252162.1	-436799.9	1	504360.9	-60.00241	-1.157318E-010	0.0052455	5
	58	89	1.584686	304186.8	-499665.1	1	584974.2	-58.66773	1.995349E-010	0.0052876	5
	59	93	1.266892	357836.8	-567404.3	1	670816.6	-57.76218	-9.426446E-011	0.0052384	5
	60	97	0.999041	421878.7	-648212.1	1	773408.4	-56.94254	3.596583E-010	0.0052461	5
