EXPLAIN
TAG	EISPOT
TITLE	LABEL	Potentiostatic EIS	Test &Identifier
DATE	LABEL	11/20/2019	Date
TIME	LABEL	11:43:48	Time
NOTES	NOTES	4	&Notes...
	
	
	
	
PSTAT	PSTAT	REF600-11020	Potentiostat
VDC	POTEN	0.00000E+000	T	DC &Voltage (V)
FREQINIT	QUANT	1.00000E+006	Initial Fre&q. (Hz)
FREQFINAL	QUANT	1.00000E+000	Final Fre&q. (Hz)
PTSPERDEC	QUANT	1.00000E+001	Points/&decade
VAC	QUANT	2.50000E+001	AC &Voltage (mV rms)
AREA	QUANT	1.00000E-002	&Area (cm^2)
CONDIT	TWOPARAM	T	5.00000E+000	0.00000E+000	Conditionin&g	Time(s)	E(V)
DELAY	TWOPARAM	T	5.00000E+000	0.00000E+000	Init. De&lay	Time(s)	Stab.(mV/s)
SPEED	SELECTOR	1	&Optimize for:
ZGUESS	QUANT	1.00000E+005	E&stimated Z (ohms)
OCVCURVE	TABLE	19
	Pt	T	Vf	Vm	Ach	Over
	#	s	V vs. Ref.	V	V	bits
	0	0.258333	4.72219E-003	4.72219E-003	6.07198E-004	...........
	1	0.516667	4.72117E-003	4.66888E-003	6.10065E-004	...........
	2	0.775	4.71515E-003	4.63041E-003	6.13898E-004	...........
	3	1.03333	4.69931E-003	4.61600E-003	6.08832E-004	...........
	4	1.29167	4.67433E-003	4.60284E-003	6.04132E-004	...........
	5	1.55	4.64728E-003	4.60463E-003	6.14798E-004	...........
	6	1.80833	4.62543E-003	4.60371E-003	6.12698E-004	...........
	7	2.06667	4.61142E-003	4.58210E-003	6.13832E-004	...........
	8	2.325	4.60286E-003	4.58161E-003	6.02098E-004	...........
	9	2.58333	4.59589E-003	4.57663E-003	6.14498E-004	...........
	10	2.84167	4.58902E-003	4.57507E-003	6.14265E-004	...........
	11	3.1	4.58299E-003	4.57232E-003	6.14298E-004	...........
	12	3.35833	4.57863E-003	4.58097E-003	6.06198E-004	...........
	13	3.61667	4.57642E-003	4.58040E-003	6.16632E-004	...........
	14	3.875	4.57663E-003	4.59092E-003	6.15798E-004	...........
	15	4.13333	4.57902E-003	4.59068E-003	6.15098E-004	...........
	16	4.39167	4.58276E-003	4.59103E-003	6.10532E-004	...........
	17	4.65	4.58650E-003	4.58952E-003	6.15398E-004	...........
	18	4.90833	4.58899E-003	4.58634E-003	6.18631E-004	...........
EOC	QUANT	0.004589	Open Circuit (V)
PSTATMODEL	IQUANT	4	Pstat Model
PSTATSECTION	LABEL	REF600-11020	Pstat Section
PSTATSERIALNO	LABEL	11020	Pstat Serial Number
CTRLMODE	IQUANT	1	Control Mode
IESTAB	IQUANT	0	I/E Stability
CASPEED	IQUANT	1	Control Amp Speed
CONVENTION	IQUANT	1	Current Convention
ICHRANGE	IQUANT	2	Ich Range
ICHRANGEMODE	TOGGLE	F	Ich Auto Range
ICHOFFSETENABLE	TOGGLE	T	Ich Offset Enable
ICHOFFSET	QUANT	0	Ich Offset (V)
ICHFILTER	IQUANT	3	Ich Filter
VCHRANGE	IQUANT	2	Vch Range
VCHRANGEMODE	TOGGLE	F	Vch Auto Range
VCHOFFSETENABLE	TOGGLE	T	Vch Offset Enable
VCHOFFSET	QUANT	0	Vch Offset (V)
VCHFILTER	IQUANT	3	Vch Filter
ACHRANGE	IQUANT	2	Ach Range
ACHOFFSETENABLE	TOGGLE	F	Ach Offset Enable
ACHOFFSET	QUANT	0	Ach Offset (V)
ACHFILTER	IQUANT	3	Ach Filter
IERANGELOWERLIMIT	IQUANT	1	I/E Range Lower Limit
IERANGEMODE	TOGGLE	F	I/E AutoRange
IERANGE	IQUANT	4	I/E Range
POSFEEDENABLE	TOGGLE	F	Positive Feedback IR Comp
POSFEEDRESISTANCE	QUANT	0	Positive Feedback Resistance (ohm)
ACHSELECT	IQUANT	0	Ach Select
CABLEID	IQUANT	14	Cable ID
DCCALDATE	LABEL	8/19/2019	DC Calibration Date
ACCALDATE	LABEL	8/19/2019	AC Calibration Date
THERMOSELECT	IQUANT	1	Thermo Select
FRAMEWORKVERSION	QUANT	6.33	Framework Version
INSTRUMENTVERSION	LABEL	3.50	Instrument Version
ZCURVE	TABLE
	Pt	Time	Freq	Zreal	Zimag	Zsig	Zmod	Zphz	Idc	Vdc	IERange
	#	s	Hz	ohm	ohm	V	ohm	°	A	V	#
	0	1	1000078	2208.936	-1836.026	1	2872.349	-39.73272	-7.390193E-006	0.0064696	8
	1	2	794390.6	2581.143	-1835.307	1	3167.12	-35.41451	4.311186E-008	0.0066254	8
	2	4	630984.4	2930.886	-1772.553	1	3425.206	-31.16488	-1.482804E-006	0.0066953	8
	3	5	501234.4	3258.288	-1691.308	1	3671.098	-27.43287	-1.945264E-006	0.0063212	8
	4	6	398109.4	3526.007	-1562.088	1	3856.533	-23.89426	6.818841E-006	0.0053735	8
	5	8	316265.6	3759.788	-1436.051	1	4024.705	-20.90435	5.038393E-006	0.005406	8
	6	9	251203.1	3968.78	-1308.346	1	4178.874	-18.24529	5.273519E-006	0.0050252	8
	7	10	199546.9	4145.822	-1186.544	1	4312.276	-15.97124	-2.039434E-006	0.0061987	8
	8	12	158578.1	4287.135	-1076.298	1	4420.175	-14.09301	-7.441891E-007	0.0064381	8
	9	13	125953.1	4460.946	-936.4561	1	4558.178	-11.85557	1.171905E-006	0.0074036	7
	10	15	100078.1	4555.219	-849.3948	1	4633.734	-10.56243	5.730773E-007	0.0062264	7
	11	16	79453.13	4654.844	-782.0901	1	4720.088	-9.53755	-2.930891E-007	0.0052192	7
	12	17	63140.62	4740.128	-723.5659	1	4795.035	-8.679028	6.544873E-008	0.0069213	7
	13	19	50203.12	4819.244	-677.3239	1	4866.609	-8.000271	3.730485E-007	0.0065226	7
	14	20	39890.62	4886.377	-641.0353	1	4928.246	-7.473853	-3.05394E-007	0.0051765	7
	15	21	31640.63	4951.49	-619.115	1	4990.046	-7.127052	-2.938893E-007	0.0052005	7
	16	23	25171.88	5010.499	-607.52	1	5047.195	-6.913332	-2.785809E-007	0.007293	7
	17	24	20015.62	5060.393	-614.5483	1	5097.573	-6.924253	-8.506683E-007	0.0075964	7
	18	25	15890.62	5119.406	-626.4523	1	5157.592	-6.976495	7.391593E-007	0.0043189	7
	19	27	12609.37	5170.261	-654.6484	1	5211.542	-7.21628	-6.929843E-007	0.0058541	7
	20	28	10078.13	5221.828	-702.113	1	5268.819	-7.657909	7.400625E-007	0.0043126	7
	21	29	8015.625	5277.012	-765.2723	1	5332.213	-8.25151	-8.606727E-007	0.0076082	7
	22	31	6328.125	5328.133	-864.1558	1	5397.756	-9.212432	3.794525E-007	0.0065246	7
	23	32	5015.625	5384.74	-985.79	1	5474.231	-10.37431	3.915995E-007	0.0065358	7
	24	34	3984.375	5432.378	-1148.02	1	5552.358	-11.9327	7.142923E-008	0.0069651	7
	25	35	3170.956	5516.767	-1334.437	1	5675.865	-13.59795	1.04734E-006	0.0052548	7
	26	36	2527.573	5584.628	-1569.613	1	5801.014	-15.69852	-1.257342E-006	0.007485	7
	27	38	1976.103	5677.549	-1888.297	1	5983.329	-18.39662	-6.35475E-007	0.0076267	7
	28	39	1577.524	5777.504	-2269.96	1	6207.437	-21.44968	4.80846E-007	0.0043444	7
	29	40	1265.625	5877.469	-2689.619	1	6463.644	-24.58955	4.573409E-007	0.004417	7
	30	42	998.264	6009.547	-3266.695	1	6840.025	-28.52781	9.304229E-007	0.0043972	7
	31	43	796.875	6166.378	-3940.246	1	7317.77	-32.57812	3.720574E-007	0.0065097	7
	32	45	627.7902	6358.625	-4829.161	1	7984.541	-37.21544	7.384792E-007	0.0043174	7
	33	46	505.5147	6572.241	-5816.125	1	8776.198	-41.50732	1.05087E-006	0.0049091	7
	34	47	397.9953	6858.907	-7137.408	1	9898.85	-46.13993	7.85473E-009	0.0060211	7
	35	49	315.5048	7213.801	-8732.198	1	11326.53	-50.43937	6.284405E-010	0.0059595	6
	36	50	252.4038	7641.865	-10610.46	1	13075.93	-54.23783	1.399317E-009	0.0059508	6
	37	51	198.6229	8233.091	-13085.49	1	15460.07	-57.82283	5.746191E-010	0.0059573	6
	38	53	158.3615	8965.69	-15947.02	1	18294.56	-60.65455	4.952683E-010	0.0059543	6
	39	54	125.558	9941.41	-19517.49	1	21903.52	-63.00758	3.811535E-009	0.0059598	6
	40	55	100.4464	11169.11	-23643.87	1	26149.21	-64.71445	3.695574E-010	0.0059558	6
	41	57	79.00281	12916.51	-29037.04	1	31780.28	-66.01913	-5.315007E-010	0.0059509	6
	42	58	63.3446	14850.16	-35035.03	1	38052.34	-67.02956	-2.844972E-009	0.0059517	6
	43	60	49.86702	18417.9	-42320.04	1	46154.14	-66.48108	-2.924902E-009	0.0059439	6
	44	61	39.72458	22328.67	-51035.22	1	55706.04	-66.36991	6.649332E-011	0.0059482	6
	45	62	31.6723	27311.35	-60945.67	1	66785.36	-65.8616	-3.493761E-012	0.0059488	6
	46	64	24.93351	34121.38	-72468.8	1	80099.91	-64.78696	2.427445E-010	0.0059578	6
	47	65	19.86229	42139.45	-84981.33	1	94855.47	-63.62469	1.81357E-009	0.0059584	6
	48	67	15.83615	52224.06	-98422.5	1	111419.7	-62.04909	-6.392732E-011	0.0059543	5
	49	68	12.40079	65118.62	-115112.9	1	132255.1	-60.50344	-8.120896E-011	0.0059561	5
	50	69	9.93114	78472.89	-131941.5	1	153514.1	-59.25772	-1.622183E-011	0.005957	5
	51	71	7.944915	94476.66	-149683.8	1	177005.9	-57.74091	4.513767E-010	0.0059649	5
	52	73	6.317385	111564.8	-169342.2	1	202789.2	-56.6226	6.026727E-010	0.0059722	5
	53	75	5.008013	131319.1	-192310.1	1	232868.8	-55.67277	5.655389E-010	0.0059718	5
	54	77	3.945707	154083	-218540.6	1	267397.7	-54.81408	-1.907948E-010	0.0059596	5
	55	80	3.158693	177071.8	-246611.5	1	303597.9	-54.32092	3.487555E-010	0.0059786	5
	56	83	2.504006	203737.9	-280692.4	1	346839.1	-54.02634	-3.968376E-010	0.0059556	5
	57	86	1.998082	232189.3	-318538.2	1	394180.7	-53.91089	-1.630034E-010	0.0059376	5
	58	89	1.584686	264557.6	-362932.9	1	449122.5	-53.91006	-2.089696E-011	0.0059983	5
	59	93	1.266892	299877.7	-415091.3	1	512081.4	-54.15423	-1.289595E-010	0.0059283	5
	60	97	0.999041	342759	-478560	1	588645.4	-54.38863	2.93747E-010	0.0059984	5
