EXPLAIN
TAG	EISPOT
TITLE	LABEL	Potentiostatic EIS	Test &Identifier
DATE	LABEL	6/6/2020	Date
TIME	LABEL	18:25:23	Time
NOTES	NOTES	1	&Notes...
	
PSTAT	PSTAT	REF600-11020	Potentiostat
VDC	POTEN	0.00000E+000	T	DC &Voltage (V)
FREQINIT	QUANT	1.00000E+006	Initial Fre&q. (Hz)
FREQFINAL	QUANT	1.00000E+000	Final Fre&q. (Hz)
PTSPERDEC	QUANT	1.00000E+001	Points/&decade
VAC	QUANT	2.50000E+001	AC &Voltage (mV rms)
AREA	QUANT	4.00000E-004	&Area (cm^2)
CONDIT	TWOPARAM	F	5.00000E+000	0.00000E+000	Conditionin&g	Time(s)	E(V)
DELAY	TWOPARAM	T	3.00000E+000	0.00000E+000	Init. De&lay	Time(s)	Stab.(mV/s)
SPEED	SELECTOR	0	&Optimize for:
ZGUESS	QUANT	1.00000E+003	E&stimated Z (ohms)
OCVCURVE	TABLE	12
	Pt	T	Vf	Vm	Ach	Over
	#	s	V vs. Ref.	V	V	bits
	0	0.258333	3.24498E-003	3.24498E-003	5.73197E-004	...........
	1	0.516667	3.24500E-003	3.24609E-003	5.71197E-004	...........
	2	0.775	3.24518E-003	3.24997E-003	5.75163E-004	...........
	3	1.03333	3.24584E-003	3.25168E-003	5.71763E-004	...........
	4	1.29167	3.24717E-003	3.25104E-003	5.69430E-004	...........
	5	1.55	3.24885E-003	3.25347E-003	5.69530E-004	...........
	6	1.80833	3.25051E-003	3.25744E-003	5.73230E-004	...........
	7	2.06667	3.25218E-003	3.25837E-003	5.73230E-004	...........
	8	2.325	3.25404E-003	3.25693E-003	5.74630E-004	...........
	9	2.58333	3.25584E-003	3.26108E-003	5.73030E-004	...........
	10	2.84167	3.25736E-003	3.26212E-003	5.75963E-004	...........
	11	3.1	3.25868E-003	3.25904E-003	5.71430E-004	...........
EOC	QUANT	0.0032587	Open Circuit (V)
PSTATMODEL	IQUANT	4	Pstat Model
PSTATSECTION	LABEL	REF600-11020	Pstat Section
PSTATSERIALNO	LABEL	11020	Pstat Serial Number
CTRLMODE	IQUANT	1	Control Mode
IESTAB	IQUANT	0	I/E Stability
CASPEED	IQUANT	1	Control Amp Speed
CONVENTION	IQUANT	1	Current Convention
ICHRANGE	IQUANT	2	Ich Range
ICHRANGEMODE	TOGGLE	F	Ich Auto Range
ICHOFFSETENABLE	TOGGLE	T	Ich Offset Enable
ICHOFFSET	QUANT	0	Ich Offset (V)
ICHFILTER	IQUANT	3	Ich Filter
VCHRANGE	IQUANT	2	Vch Range
VCHRANGEMODE	TOGGLE	F	Vch Auto Range
VCHOFFSETENABLE	TOGGLE	T	Vch Offset Enable
VCHOFFSET	QUANT	0	Vch Offset (V)
VCHFILTER	IQUANT	3	Vch Filter
ACHRANGE	IQUANT	2	Ach Range
ACHOFFSETENABLE	TOGGLE	F	Ach Offset Enable
ACHOFFSET	QUANT	0	Ach Offset (V)
ACHFILTER	IQUANT	3	Ach Filter
IERANGELOWERLIMIT	IQUANT	1	I/E Range Lower Limit
IERANGEMODE	TOGGLE	F	I/E AutoRange
IERANGE	IQUANT	6	I/E Range
POSFEEDENABLE	TOGGLE	F	Positive Feedback IR Comp
POSFEEDRESISTANCE	QUANT	0	Positive Feedback Resistance (ohm)
ACHSELECT	IQUANT	0	Ach Select
CABLEID	IQUANT	14	Cable ID
DCCALDATE	LABEL	2/27/2020	DC Calibration Date
ACCALDATE	LABEL	2/27/2020	AC Calibration Date
THERMOSELECT	IQUANT	1	Thermo Select
FRAMEWORKVERSION	QUANT	6.33	Framework Version
INSTRUMENTVERSION	LABEL	3.50	Instrument Version
ZCURVE	TABLE
	Pt	Time	Freq	Zreal	Zimag	Zsig	Zmod	Zphz	Idc	Vdc	IERange
	#	s	Hz	ohm	ohm	V	ohm	°	A	V	#
	0	1	1000078	1743.96	-2165.178	1	2780.179	-51.15001	3.326288E-009	0.0057958	8
	1	1	794390.6	2097.572	-2385.963	1	3176.89	-48.68032	5.224429E-008	0.0054093	8
	2	2	630984.4	2486.282	-2592.098	1	3591.737	-46.19367	4.643223E-008	0.005226	8
	3	2	501234.4	2907.466	-2781.975	1	4024.021	-43.73644	5.169224E-008	0.0051236	8
	4	2	398109.4	3356.768	-2972.587	1	4483.767	-41.5265	4.052698E-008	0.0050455	8
	5	3	316265.6	3846.644	-3142.912	1	4967.35	-39.25064	6.409692E-008	0.0050253	8
	6	3	251203.1	4378.038	-3306.434	1	5486.322	-37.06127	2.283018E-008	0.0050207	8
	7	3	199546.9	4953.566	-3441.318	1	6031.625	-34.7883	9.424815E-009	0.0050198	8
	8	4	158578.1	5576.215	-3530.714	1	6600.009	-32.34092	6.328143E-008	0.0049907	8
	9	4	125953.1	6279.073	-3501.308	1	7189.292	-29.14472	3.070695E-009	0.0049312	7
	10	4	100078.1	6895.978	-3457.421	1	7714.161	-26.62771	2.905515E-009	0.004919	7
	11	5	79453.13	7521.409	-3351.081	1	8234.156	-24.01484	2.141967E-009	0.0049143	7
	12	5	63140.62	8094.081	-3181.92	1	8697.055	-21.46063	2.406534E-009	0.0049085	7
	13	5	50203.12	8604.525	-2970.314	1	9102.781	-19.04486	3.013976E-009	0.0049001	7
	14	6	39890.62	9041.249	-2740.04	1	9447.328	-16.85995	3.587172E-009	0.0049079	7
	15	6	31640.63	9415.831	-2509.732	1	9744.57	-14.92485	3.36949E-009	0.0049057	7
	16	6	25171.88	9726.86	-2301.196	1	9995.36	-13.3104	3.649524E-009	0.0049035	7
	17	6	20015.62	9986.44	-2118.253	1	10208.63	-11.97568	3.407931E-009	0.0048978	7
	18	7	15890.62	10212.84	-1973.611	1	10401.79	-10.93748	4.012402E-009	0.0049008	7
	19	7	12609.37	10438.43	-1768.313	1	10587.15	-9.61486	-6.877932E-011	0.0049506	6
	20	7	10078.13	10589	-1722.933	1	10728.25	-9.241593	3.197068E-010	0.004956	6
	21	8	8015.625	10728.05	-1721.519	1	10865.3	-9.116469	2.81268E-010	0.0049485	6
	22	8	6328.125	10856.08	-1769.979	1	10999.42	-9.260046	4.045937E-011	0.00495	6
	23	8	5015.625	10976.43	-1872.07	1	11134.93	-9.67887	2.832906E-010	0.0049493	6
	24	9	3984.375	11098.82	-2035.412	1	11283.92	-10.39199	3.670045E-011	0.0049491	6
	25	9	3170.956	11221.87	-2266.009	1	11448.37	-11.41611	1.064027E-010	0.0049439	6
	26	9	2527.573	11351.02	-2573.044	1	11638.99	-12.77195	-9.08117E-011	0.0049419	6
	27	10	1976.103	11499.73	-3009.767	1	11887.07	-14.66676	6.170642E-011	0.0049399	6
	28	10	1577.524	11651.33	-3523.901	1	12172.57	-16.82774	1.856175E-012	0.0049417	6
	29	10	1265.625	11823.72	-4150.166	1	12530.93	-19.34125	3.32637E-011	0.0049419	6
	30	11	998.264	12041.62	-4991.543	1	13035.19	-22.51519	4.402663E-010	0.0049416	6
	31	11	796.875	12284.19	-5980.146	1	13662.48	-25.95758	1.138745E-011	0.0049442	6
	32	11	627.7902	12592.81	-7275.963	1	14543.67	-30.01878	2.425007E-011	0.0049499	6
	33	12	505.5147	12948.66	-8715.827	1	15608.76	-33.94476	-3.289749E-010	0.0049384	6
	34	12	397.9953	13417.72	-10654.91	1	17133.66	-38.45284	5.262189E-010	0.0049563	6
	35	12	315.5048	13990.49	-12968.8	1	19076.79	-42.82968	5.380701E-010	0.0049517	6
	36	13	252.4038	14678.05	-15673.27	1	21473.16	-46.87807	4.977521E-010	0.0049476	6
	37	13	198.6229	15604.29	-19213.57	1	24751.87	-50.91825	4.16505E-010	0.0049486	6
	38	13	158.3615	16712.21	-23289.79	1	28665.53	-54.33766	5.937808E-010	0.0049415	6
	39	14	125.558	18155.09	-28355.88	1	33669.91	-57.37026	3.984605E-010	0.0049482	6
	40	14	100.4464	19918.39	-34238.61	1	39610.92	-59.8112	3.794592E-010	0.0049497	6
	41	14	79.00281	22360.46	-41897.57	1	47491.02	-61.91145	4.415138E-010	0.0049455	6
	42	15	63.3446	25258.46	-50383.46	1	56360.29	-63.37427	4.027504E-010	0.0049493	6
	43	15	49.86702	29342.83	-61406.45	1	68056.99	-64.45938	1.473255E-010	0.004942	6
	44	15	39.72458	34409.25	-73901.94	1	81519.89	-65.03299	6.581896E-010	0.0049426	6
	45	16	31.6723	41006.08	-88625.69	1	97652.5	-65.17056	4.834207E-010	0.0049429	6
	46	16	24.93351	50179.21	-106738.3	1	117945	-64.82111	3.859413E-010	0.0049455	5
	47	16	19.86229	61458.55	-126634.8	1	140760.5	-64.11172	1.240796E-009	0.0049599	5
	48	17	15.83615	75945.95	-149321.7	1	167525.4	-63.04183	-3.869985E-010	0.0049489	5
	49	17	12.40079	96044.2	-176118.1	1	200604.3	-61.39461	9.239877E-010	0.0049528	5
	50	17	9.93114	118207.8	-202855.3	1	234783.6	-59.76979	4.638142E-010	0.0049548	5
	51	17	7.944915	144847.5	-230816.6	1	272501.5	-57.88992	-1.002147E-009	0.0049555	5
	52	18	6.317385	176848.5	-260944.8	1	315226.2	-55.87357	5.226219E-010	0.00494	5
	53	19	5.008013	213499.3	-292718.8	1	362306.9	-53.89423	5.112032E-010	0.0049573	5
	54	20	3.945707	254004.5	-325823.4	1	413133.4	-52.06083	-1.74192E-010	0.0049431	5
	55	20	3.158693	294953	-358987.8	1	464617.6	-50.59265	3.239319E-010	0.0049456	5
	56	22	2.504006	338635.3	-396336.6	1	521302.8	-49.48897	1.45837E-010	0.0049484	5
	57	23	1.998082	383753.1	-437999.4	1	582331.4	-48.77678	-1.1041E-010	0.0048969	5
	58	24	1.584686	429958.6	-487209.4	1	649798	-48.57184	2.767575E-012	0.0049285	5
	59	26	1.266892	478913.6	-542424.4	1	723589.9	-48.5583	1.023922E-010	0.004967	5
	60	29	0.999041	534747.9	-614672.5	1	814725.5	-48.97764	1.533499E-010	0.0049753	5
