EXPLAIN
TAG	EISPOT
TITLE	LABEL	Potentiostatic EIS	Test &Identifier
DATE	LABEL	3/19/2020	Date
TIME	LABEL	20:25:26	Time
NOTES	NOTES	1	&Notes...
	
PSTAT	PSTAT	REF600-11020	Potentiostat
VDC	POTEN	0.00000E+000	T	DC &Voltage (V)
FREQINIT	QUANT	1.00000E+006	Initial Fre&q. (Hz)
FREQFINAL	QUANT	1.00000E+000	Final Fre&q. (Hz)
PTSPERDEC	QUANT	1.00000E+001	Points/&decade
VAC	QUANT	2.50000E+001	AC &Voltage (mV rms)
AREA	QUANT	4.00000E-004	&Area (cm^2)
CONDIT	TWOPARAM	F	5.00000E+000	0.00000E+000	Conditionin&g	Time(s)	E(V)
DELAY	TWOPARAM	T	3.00000E+000	0.00000E+000	Init. De&lay	Time(s)	Stab.(mV/s)
SPEED	SELECTOR	0	&Optimize for:
ZGUESS	QUANT	1.00000E+003	E&stimated Z (ohms)
OCVCURVE	TABLE	12
	Pt	T	Vf	Vm	Ach	Over
	#	s	V vs. Ref.	V	V	bits
	0	0.258333	1.36925E-002	1.36925E-002	5.68263E-004	...........
	1	0.516667	1.36926E-002	1.36938E-002	5.78930E-004	...........
	2	0.775	1.36926E-002	1.36885E-002	5.72330E-004	...........
	3	1.03333	1.36925E-002	1.36971E-002	5.73697E-004	...........
	4	1.29167	1.36926E-002	1.37009E-002	5.75363E-004	...........
	5	1.55	1.36937E-002	1.37022E-002	5.74630E-004	...........
	6	1.80833	1.36962E-002	1.37079E-002	5.73297E-004	...........
	7	2.06667	1.36995E-002	1.37129E-002	5.71997E-004	...........
	8	2.325	1.37035E-002	1.37266E-002	5.73630E-004	...........
	9	2.58333	1.37089E-002	1.37389E-002	5.75597E-004	...........
	10	2.84167	1.37162E-002	1.37358E-002	5.73697E-004	...........
	11	3.1	1.37244E-002	1.37405E-002	5.74630E-004	...........
EOC	QUANT	0.0137244	Open Circuit (V)
PSTATMODEL	IQUANT	4	Pstat Model
PSTATSECTION	LABEL	REF600-11020	Pstat Section
PSTATSERIALNO	LABEL	11020	Pstat Serial Number
CTRLMODE	IQUANT	1	Control Mode
IESTAB	IQUANT	0	I/E Stability
CASPEED	IQUANT	1	Control Amp Speed
CONVENTION	IQUANT	1	Current Convention
ICHRANGE	IQUANT	2	Ich Range
ICHRANGEMODE	TOGGLE	F	Ich Auto Range
ICHOFFSETENABLE	TOGGLE	T	Ich Offset Enable
ICHOFFSET	QUANT	0	Ich Offset (V)
ICHFILTER	IQUANT	3	Ich Filter
VCHRANGE	IQUANT	2	Vch Range
VCHRANGEMODE	TOGGLE	F	Vch Auto Range
VCHOFFSETENABLE	TOGGLE	T	Vch Offset Enable
VCHOFFSET	QUANT	0	Vch Offset (V)
VCHFILTER	IQUANT	3	Vch Filter
ACHRANGE	IQUANT	2	Ach Range
ACHOFFSETENABLE	TOGGLE	F	Ach Offset Enable
ACHOFFSET	QUANT	0	Ach Offset (V)
ACHFILTER	IQUANT	3	Ach Filter
IERANGELOWERLIMIT	IQUANT	1	I/E Range Lower Limit
IERANGEMODE	TOGGLE	F	I/E AutoRange
IERANGE	IQUANT	7	I/E Range
POSFEEDENABLE	TOGGLE	F	Positive Feedback IR Comp
POSFEEDRESISTANCE	QUANT	0	Positive Feedback Resistance (ohm)
ACHSELECT	IQUANT	0	Ach Select
CABLEID	IQUANT	14	Cable ID
DCCALDATE	LABEL	2/27/2020	DC Calibration Date
ACCALDATE	LABEL	2/27/2020	AC Calibration Date
THERMOSELECT	IQUANT	1	Thermo Select
FRAMEWORKVERSION	QUANT	6.33	Framework Version
INSTRUMENTVERSION	LABEL	3.50	Instrument Version
ZCURVE	TABLE
	Pt	Time	Freq	Zreal	Zimag	Zsig	Zmod	Zphz	Idc	Vdc	IERange
	#	s	Hz	ohm	ohm	V	ohm	°	A	V	#
	0	1	1000078	1447.919	-2318.711	1	2733.659	-58.01728	3.613874E-007	0.0161534	8
	1	1	794390.6	1701.215	-2694.042	1	3186.22	-57.72869	-2.084618E-007	0.0158389	8
	2	2	630984.4	2006.373	-3134.728	1	3721.834	-57.37886	-4.255148E-008	0.0156632	8
	3	2	501234.4	2387.332	-3631.149	1	4345.642	-56.67672	-4.389961E-008	0.0155366	8
	4	2	398109.4	2851.695	-4187.569	1	5066.35	-55.74551	-1.339324E-007	0.0155192	8
	5	3	316265.6	3418.817	-4803.836	1	5896.198	-54.56112	-2.477288E-007	0.0154751	8
	6	3	251203.1	4119.046	-5442.252	1	6825.295	-52.87922	-3.423069E-008	0.0154206	8
	7	3	199546.9	4939.16	-6110.832	1	7857.325	-51.05267	4.879725E-007	0.0153933	8
	8	4	158578.1	5908.493	-6807.828	1	9014.256	-49.04539	1.419569E-007	0.0153987	8
	9	4	125953.1	7139.269	-7376.278	1	10265.41	-45.93544	1.74803E-009	0.0153249	7
	10	4	100078.1	8317.702	-7992.21	1	11535.15	-43.85672	1.322145E-008	0.0153293	7
	11	4	79453.13	9614.25	-8552.671	1	12867.86	-41.65575	-2.808231E-009	0.0153524	7
	12	5	63140.62	11001.7	-9066.976	1	14256.48	-39.49342	2.482166E-009	0.0153371	7
	13	5	50203.12	12419.92	-9510.08	1	15642.76	-37.44172	-1.264432E-009	0.0153376	7
	14	5	39890.62	13878.06	-9935.27	1	17067.8	-35.59879	-1.322243E-009	0.015348	7
	15	6	31640.63	15372.28	-10357.18	1	18535.87	-33.9704	3.133356E-009	0.0153494	7
	16	6	25171.88	16845.71	-10745.71	1	19981.19	-32.53339	3.241809E-009	0.0153261	7
	17	6	20015.62	18374.21	-11211.68	1	21524.71	-31.39094	4.79655E-009	0.0153292	7
	18	7	15890.62	19936.26	-11726.7	1	23129.42	-30.46444	8.786938E-009	0.01532	7
	19	7	12609.37	21794.38	-12083.33	1	24919.92	-29.00505	4.751596E-010	0.0153824	6
	20	7	10078.13	23422.65	-12767.26	1	26676.28	-28.594	8.26596E-010	0.0154011	6
	21	8	8015.625	25215.53	-13534.62	1	28618.33	-28.22501	1.29228E-009	0.0153958	6
	22	8	6328.125	27223.23	-14399.77	1	30797.04	-27.87668	3.726284E-010	0.0153875	6
	23	8	5015.625	29370.48	-15302.92	1	33118.04	-27.5209	1.498712E-009	0.0153841	6
	24	9	3984.375	31690.13	-16185.38	1	35584.14	-27.05516	1.258681E-009	0.0153629	6
	25	9	3170.956	34181.4	-17066.96	1	38205.36	-26.5332	-1.241984E-011	0.0153879	6
	26	9	2527.573	36841.26	-17868.07	1	40945.65	-25.87346	3.363809E-012	0.0153892	6
	27	10	1976.103	39870.51	-18628.85	1	44007.86	-25.04357	-6.945827E-011	0.0153885	6
	28	10	1577.524	42721.18	-19189.48	1	46833.06	-24.18864	9.325442E-010	0.0153733	6
	29	10	1265.625	45532.81	-19641.54	1	49588.57	-23.33397	1.804219E-009	0.0153804	6
	30	64809	998.264	48526.56	-20037.67	1	52500.81	-22.43679	6.586574E-010	0.0153721	6
	31	64809	796.875	51272.24	-20418.57	1	55188.41	-21.71434	7.86433E-010	0.0153906	6
	32	64809	627.7902	54001.29	-20869.25	1	57893.56	-21.12945	6.43031E-010	0.0153735	6
	33	64810	505.5147	56358.04	-21422.39	1	60292.18	-20.81242	7.769018E-010	0.0153721	6
	34	64810	397.9953	58779.3	-22353.46	1	62886.27	-20.82154	9.884669E-010	0.0153904	6
	35	64810	315.5048	61052.34	-23697.65	1	65490.2	-21.21387	9.778117E-010	0.01539	6
	36	64811	252.4038	63181.3	-25491.49	1	68129.98	-21.97239	8.875539E-010	0.0153888	6
	37	64811	198.6229	65494.78	-28111.94	1	71273.05	-23.23018	9.203136E-010	0.015386	6
	38	64811	158.3615	67864.31	-31417.06	1	74783.66	-24.84128	8.898572E-010	0.0153851	6
	39	64811	125.558	70519.4	-35676.16	1	79030.21	-26.8351	8.081495E-010	0.0153849	6
	40	64812	100.4464	73424.36	-40731.54	1	83965.44	-29.01895	6.594479E-010	0.0153813	6
	41	64812	79.00281	77171.27	-47439.81	1	90586.64	-31.58046	7.507461E-010	0.0153772	6
	42	64812	63.3446	81213.83	-54821.76	1	97985.3	-34.02053	2.75877E-010	0.0153773	5
	43	64813	49.86702	86571.09	-64377.99	1	107884.6	-36.63608	4.221788E-010	0.0153811	5
	44	64813	39.72458	92810.42	-75116.52	1	119399.6	-38.98513	1.149969E-010	0.0153901	5
	45	64814	31.6723	100298.5	-87654.06	1	133203	-41.15124	2.38628E-010	0.0153811	5
	46	64814	24.93351	110005.8	-103071.4	1	150748.1	-43.13603	-1.961004E-011	0.0153797	5
	47	64814	19.86229	121209.2	-119819.4	1	170435.8	-44.66962	4.880339E-010	0.0153834	5
	48	64814	15.83615	134794.2	-138422.9	1	193210.7	-45.76093	-5.58724E-010	0.0153852	5
	49	64815	12.40079	152477.5	-161464.5	1	222081.5	-46.63972	-1.054472E-009	0.0153822	5
	50	64815	9.93114	171250.8	-184652.9	1	251840.3	-47.15654	-1.061516E-009	0.0153779	5
	51	64815	7.944915	194074.1	-210600.7	1	286386.8	-47.33862	1.741473E-010	0.0153775	5
	52	64816	6.317385	220858.9	-239334	1	325667.7	-47.29898	-9.417529E-011	0.0153786	5
	53	64817	5.008013	252275	-271375.6	1	370523.1	-47.08899	-3.878233E-010	0.0153761	5
	54	64818	3.945707	290203.7	-306757.2	1	422277.3	-46.58839	-1.370321E-010	0.0153797	5
	55	64818	3.158693	329162.2	-342410.7	1	474966.2	-46.13016	-2.057085E-010	0.0153591	5
	56	64819	2.504006	376163.8	-381343.4	1	535651	-45.39176	2.106749E-010	0.015368	5
	57	64821	1.998082	425587.5	-422855.8	1	599943.1	-44.81553	3.045883E-010	0.015374	5
	58	64822	1.584686	483643.6	-467199.4	1	672448.1	-44.00921	8.066472E-011	0.0153284	5
	59	64824	1.266892	545864.4	-515337.2	1	750693.3	-43.35224	6.557246E-011	0.0153269	5
	60	64827	0.999041	615789.9	-569665	1	838877.5	-42.7718	-1.146716E-011	0.0153498	5
