EXPLAIN
TAG	EISPOT
TITLE	LABEL	Potentiostatic EIS	Test &Identifier
DATE	LABEL	3/20/2020	Date
TIME	LABEL	15:19:14	Time
NOTES	NOTES	1	&Notes...
	
PSTAT	PSTAT	REF600-11020	Potentiostat
VDC	POTEN	0.00000E+000	T	DC &Voltage (V)
FREQINIT	QUANT	1.00000E+006	Initial Fre&q. (Hz)
FREQFINAL	QUANT	1.00000E+000	Final Fre&q. (Hz)
PTSPERDEC	QUANT	1.00000E+001	Points/&decade
VAC	QUANT	2.50000E+001	AC &Voltage (mV rms)
AREA	QUANT	4.00000E-004	&Area (cm^2)
CONDIT	TWOPARAM	F	5.00000E+000	0.00000E+000	Conditionin&g	Time(s)	E(V)
DELAY	TWOPARAM	T	3.00000E+000	0.00000E+000	Init. De&lay	Time(s)	Stab.(mV/s)
SPEED	SELECTOR	0	&Optimize for:
ZGUESS	QUANT	1.00000E+003	E&stimated Z (ohms)
OCVCURVE	TABLE	12
	Pt	T	Vf	Vm	Ach	Over
	#	s	V vs. Ref.	V	V	bits
	0	0.258333	8.66221E-002	8.66221E-002	5.80530E-004	...........
	1	0.516667	8.66218E-002	8.66057E-002	5.78930E-004	...........
	2	0.775	8.66197E-002	8.65824E-002	5.81197E-004	...........
	3	1.03333	8.66136E-002	8.65718E-002	5.84830E-004	...........
	4	1.29167	8.66026E-002	8.65601E-002	5.79297E-004	...........
	5	1.55	8.65885E-002	8.65357E-002	5.88063E-004	...........
	6	1.80833	8.65729E-002	8.65096E-002	5.80797E-004	...........
	7	2.06667	8.65554E-002	8.64949E-002	5.77997E-004	...........
	8	2.325	8.65361E-002	8.64782E-002	5.83797E-004	...........
	9	2.58333	8.65161E-002	8.64554E-002	5.81830E-004	...........
	10	2.84167	8.64962E-002	8.64227E-002	5.83963E-004	...........
	11	3.1	8.64756E-002	8.64068E-002	5.75330E-004	...........
EOC	QUANT	0.0864756	Open Circuit (V)
PSTATMODEL	IQUANT	4	Pstat Model
PSTATSECTION	LABEL	REF600-11020	Pstat Section
PSTATSERIALNO	LABEL	11020	Pstat Serial Number
CTRLMODE	IQUANT	1	Control Mode
IESTAB	IQUANT	0	I/E Stability
CASPEED	IQUANT	1	Control Amp Speed
CONVENTION	IQUANT	1	Current Convention
ICHRANGE	IQUANT	2	Ich Range
ICHRANGEMODE	TOGGLE	F	Ich Auto Range
ICHOFFSETENABLE	TOGGLE	T	Ich Offset Enable
ICHOFFSET	QUANT	0	Ich Offset (V)
ICHFILTER	IQUANT	3	Ich Filter
VCHRANGE	IQUANT	2	Vch Range
VCHRANGEMODE	TOGGLE	F	Vch Auto Range
VCHOFFSETENABLE	TOGGLE	T	Vch Offset Enable
VCHOFFSET	QUANT	0	Vch Offset (V)
VCHFILTER	IQUANT	3	Vch Filter
ACHRANGE	IQUANT	2	Ach Range
ACHOFFSETENABLE	TOGGLE	F	Ach Offset Enable
ACHOFFSET	QUANT	0	Ach Offset (V)
ACHFILTER	IQUANT	3	Ach Filter
IERANGELOWERLIMIT	IQUANT	1	I/E Range Lower Limit
IERANGEMODE	TOGGLE	F	I/E AutoRange
IERANGE	IQUANT	8	I/E Range
POSFEEDENABLE	TOGGLE	F	Positive Feedback IR Comp
POSFEEDRESISTANCE	QUANT	0	Positive Feedback Resistance (ohm)
ACHSELECT	IQUANT	0	Ach Select
CABLEID	IQUANT	14	Cable ID
DCCALDATE	LABEL	2/27/2020	DC Calibration Date
ACCALDATE	LABEL	2/27/2020	AC Calibration Date
THERMOSELECT	IQUANT	1	Thermo Select
FRAMEWORKVERSION	QUANT	6.33	Framework Version
INSTRUMENTVERSION	LABEL	3.50	Instrument Version
ZCURVE	TABLE
	Pt	Time	Freq	Zreal	Zimag	Zsig	Zmod	Zphz	Idc	Vdc	IERange
	#	s	Hz	ohm	ohm	V	ohm	°	A	V	#
	0	1	1000078	1987.022	-1761.993	1	2655.725	-41.56503	1.499652E-007	0.0888357	8
	1	1	794390.6	2302.635	-1826.79	1	2939.267	-38.42664	-1.746027E-007	0.0885714	8
	2	1	630984.4	2621.115	-1870.197	1	3219.92	-35.50831	4.267925E-007	0.0883226	8
	3	2	501234.4	2933.952	-1886.555	1	3488.146	-32.74134	-3.673222E-007	0.0883128	8
	4	2	398109.4	3249.503	-1891.491	1	3759.922	-30.20309	4.853267E-007	0.0881412	8
	5	2	316265.6	3561.813	-1879.803	1	4027.428	-27.82356	1.667847E-007	0.0881482	8
	6	3	251203.1	3855.998	-1853.605	1	4278.384	-25.67392	4.266264E-007	0.088101	8
	7	3	199546.9	4155.051	-1823.449	1	4537.556	-23.69433	3.625018E-007	0.0881191	8
	8	3	158578.1	4436.931	-1770.18	1	4777.017	-21.75026	1.469972E-007	0.0881514	8
	9	4	125953.1	4741.967	-1668.444	1	5026.923	-19.38423	-4.570901E-008	0.0881964	7
	10	4	100078.1	4980.494	-1610.365	1	5234.366	-17.9178	-2.799314E-009	0.0880994	7
	11	4	79453.13	5219.507	-1556.456	1	5446.633	-16.60457	-1.478842E-009	0.0880717	7
	12	5	63140.62	5443.228	-1500.557	1	5646.273	-15.41216	-3.208704E-009	0.0880873	7
	13	5	50203.12	5650.052	-1443.64	1	5831.568	-14.33294	6.089955E-010	0.0880695	7
	14	5	39890.62	5843.194	-1392.807	1	6006.899	-13.40707	3.304682E-009	0.0880666	7
	15	6	31640.63	6025.39	-1350.322	1	6174.843	-12.63159	-3.142971E-009	0.0880814	7
	16	6	25171.88	6193.115	-1317.156	1	6331.633	-12.0068	-2.090029E-009	0.0880611	7
	17	6	20015.62	6355.604	-1296.64	1	6486.523	-11.53097	1.650721E-008	0.088045	7
	18	6	15890.62	6510.418	-1290.642	1	6637.115	-11.21308	-2.317543E-009	0.0880795	7
	19	7	12609.37	6659.345	-1298.739	1	6784.807	-11.03559	4.219287E-009	0.0880657	7
	20	7	10078.13	6802.633	-1324.165	1	6930.312	-11.01515	-2.342399E-009	0.0880842	7
	21	7	8015.625	6945.688	-1369.056	1	7079.329	-11.15056	1.530952E-009	0.0880659	7
	22	8	6328.125	7094.879	-1437.809	1	7239.103	-11.4561	5.510081E-009	0.0880615	7
	23	8	5015.625	7243.088	-1531.247	1	7403.178	-11.93702	-1.517954E-010	0.0880563	7
	24	8	3984.375	7395.719	-1655.234	1	7578.684	-12.61546	1.846982E-008	0.0880347	7
	25	9	3170.956	7551.426	-1810.66	1	7765.47	-13.48367	1.589237E-009	0.0880768	7
	26	9	2527.573	7707.829	-2001.044	1	7963.341	-14.55338	1.870579E-008	0.0880353	7
	27	9	1976.103	7885.809	-2259.737	1	8203.194	-15.99005	-1.079552E-009	0.0880614	7
	28	10	1577.524	8053.883	-2555.846	1	8449.697	-17.60649	7.337377E-009	0.0880413	7
	29	10	1265.625	8223.904	-2913.145	1	8724.621	-19.50562	-1.991091E-009	0.0880603	7
	30	10	998.264	8418.609	-3387.901	1	9074.737	-21.92134	9.359975E-010	0.0881077	6
	31	11	796.875	8611.275	-3961.095	1	9478.625	-24.70193	-3.706871E-010	0.0881196	6
	32	11	627.7902	8837.657	-4721.896	1	10020	-28.11527	-1.264575E-010	0.0880989	6
	33	11	505.5147	9061.181	-5577.031	1	10639.94	-31.61172	3.272141E-010	0.0881135	6
	34	12	397.9953	9355.615	-6749.017	1	11535.89	-35.80618	7.353157E-010	0.0881229	6
	35	12	315.5048	9699.76	-8162.369	1	12677.13	-40.0807	6.281016E-010	0.0881246	6
	36	12	252.4038	10105.13	-9830.09	1	14097.67	-44.20956	6.067369E-010	0.088118	6
	37	12	198.6229	10645.52	-12028.68	1	16062.89	-48.49081	4.313337E-010	0.0881196	6
	38	13	158.3615	11289.6	-14575.28	1	18436.21	-52.23964	4.865863E-010	0.0881147	6
	39	13	125.558	12121.79	-17752.97	1	21496.65	-55.67459	5.527979E-010	0.0881124	6
	40	13	100.4464	13134.02	-21457.56	1	25158.09	-58.52949	3.426154E-010	0.0881172	6
	41	14	79.00281	14522.63	-26299.67	1	30042.96	-61.09261	3.623496E-010	0.0881134	6
	42	14	63.3446	16122.7	-31693.45	1	35558.63	-63.03721	5.080914E-010	0.0881129	6
	43	14	49.86702	18376.88	-38737.21	1	42875.18	-64.6204	5.751302E-010	0.0881079	6
	44	15	39.72458	21159.84	-46826.86	1	51385.73	-65.68302	4.067421E-010	0.0881149	6
	45	15	31.6723	24738.11	-56465.57	1	61646.85	-66.34131	3.935081E-010	0.0881107	6
	46	15	24.93351	29669.05	-68555.97	1	74700.55	-66.59843	8.843471E-010	0.0881091	6
	47	16	19.86229	35751.48	-82190.32	1	89629.34	-66.49172	2.225361E-009	0.0881148	6
	48	16	15.83615	43767.03	-97923.4	1	107259.3	-65.91767	-9.279497E-010	0.0881176	5
	49	16	12.40079	54724.44	-117396.1	1	129524.6	-65.00733	-7.922711E-010	0.0881167	5
	50	16	9.93114	67158.58	-137548.3	1	153068	-63.97584	2.472443E-010	0.0881061	5
	51	17	7.944915	82376.65	-159938.8	1	179906.5	-62.74922	3.312784E-010	0.0881071	5
	52	17	6.317385	101297.8	-185586.9	1	211432.6	-61.37323	1.108324E-010	0.0881098	5
	53	18	5.008013	123759.1	-214126.3	1	247318.4	-59.97326	5.655194E-010	0.0881199	5
	54	19	3.945707	150883.4	-246361.5	1	288894.1	-58.51473	2.521943E-010	0.0881078	5
	55	20	3.158693	179237.4	-280088.5	1	332529.1	-57.38354	4.835473E-010	0.0881215	5
	56	21	2.504006	212657.9	-318611.7	1	383062.4	-56.2788	7.524244E-011	0.0881202	5
	57	22	1.998082	249574.7	-361209.6	1	439044.3	-55.3578	-4.082954E-012	0.0880788	5
	58	24	1.584686	292167.1	-408993.9	1	502630.7	-54.45967	1.271734E-010	0.0881181	5
	59	26	1.266892	339350.7	-461797.8	1	573076	-53.68981	3.567945E-010	0.0881402	5
	60	28	0.999041	396209.3	-524539.7	1	657361.1	-52.93455	2.619507E-010	0.0881532	5
