EXPLAIN
TAG	EISPOT
TITLE	LABEL	Potentiostatic EIS	Test &Identifier
DATE	LABEL	1/7/2020	Date
TIME	LABEL	17:17:10	Time
NOTES	NOTES	5	&Notes...
	
	
	
	
	
PSTAT	PSTAT	REF600-11020	Potentiostat
VDC	POTEN	0.00000E+000	T	DC &Voltage (V)
FREQINIT	QUANT	1.00000E+006	Initial Fre&q. (Hz)
FREQFINAL	QUANT	1.00000E+000	Final Fre&q. (Hz)
PTSPERDEC	QUANT	1.00000E+001	Points/&decade
VAC	QUANT	2.50000E+001	AC &Voltage (mV rms)
AREA	QUANT	1.00000E-001	&Area (cm^2)
CONDIT	TWOPARAM	T	5.00000E+000	0.00000E+000	Conditionin&g	Time(s)	E(V)
DELAY	TWOPARAM	T	5.00000E+000	0.00000E+000	Init. De&lay	Time(s)	Stab.(mV/s)
SPEED	SELECTOR	0	&Optimize for:
ZGUESS	QUANT	1.00000E+003	E&stimated Z (ohms)
OCVCURVE	TABLE	19
	Pt	T	Vf	Vm	Ach	Over
	#	s	V vs. Ref.	V	V	bits
	0	0.258333	5.50242E-003	5.50242E-003	7.09379E-004	...........
	1	0.516667	5.49729E-003	5.23389E-003	7.09579E-004	...........
	2	0.775	5.46576E-003	4.97804E-003	7.15445E-004	...........
	3	1.03333	5.37633E-003	4.72367E-003	7.14145E-004	...........
	4	1.29167	5.21432E-003	4.42233E-003	7.15445E-004	...........
	5	1.55	4.99574E-003	4.34403E-003	7.17712E-004	...........
	6	1.80833	4.75982E-003	4.28564E-003	7.16379E-004	...........
	7	2.06667	4.55444E-003	4.34850E-003	7.15612E-004	...........
	8	2.325	4.41975E-003	4.60419E-003	7.15112E-004	...........
	9	2.58333	4.37547E-003	4.51830E-003	7.08545E-004	...........
	10	2.84167	4.40216E-003	4.32369E-003	7.15479E-004	...........
	11	3.1	4.43320E-003	3.98892E-003	7.16579E-004	...........
	12	3.35833	4.38944E-003	3.52510E-003	7.19012E-004	...........
	13	3.61667	4.23155E-003	3.48222E-003	7.20078E-004	...........
	14	3.875	3.99065E-003	3.46214E-003	7.16979E-004	...........
	15	4.13333	3.75147E-003	3.54799E-003	7.20412E-004	...........
	16	4.39167	3.58954E-003	3.58875E-003	7.11779E-004	...........
	17	4.65	3.52757E-003	3.77045E-003	7.11545E-004	...........
	18	4.90833	3.54552E-003	3.68802E-003	7.16112E-004	...........
EOC	QUANT	0.0035455	Open Circuit (V)
PSTATMODEL	IQUANT	4	Pstat Model
PSTATSECTION	LABEL	REF600-11020	Pstat Section
PSTATSERIALNO	LABEL	11020	Pstat Serial Number
CTRLMODE	IQUANT	1	Control Mode
IESTAB	IQUANT	0	I/E Stability
CASPEED	IQUANT	1	Control Amp Speed
CONVENTION	IQUANT	1	Current Convention
ICHRANGE	IQUANT	2	Ich Range
ICHRANGEMODE	TOGGLE	F	Ich Auto Range
ICHOFFSETENABLE	TOGGLE	T	Ich Offset Enable
ICHOFFSET	QUANT	0	Ich Offset (V)
ICHFILTER	IQUANT	3	Ich Filter
VCHRANGE	IQUANT	2	Vch Range
VCHRANGEMODE	TOGGLE	F	Vch Auto Range
VCHOFFSETENABLE	TOGGLE	T	Vch Offset Enable
VCHOFFSET	QUANT	0	Vch Offset (V)
VCHFILTER	IQUANT	3	Vch Filter
ACHRANGE	IQUANT	2	Ach Range
ACHOFFSETENABLE	TOGGLE	F	Ach Offset Enable
ACHOFFSET	QUANT	0	Ach Offset (V)
ACHFILTER	IQUANT	3	Ach Filter
IERANGELOWERLIMIT	IQUANT	1	I/E Range Lower Limit
IERANGEMODE	TOGGLE	F	I/E AutoRange
IERANGE	IQUANT	6	I/E Range
POSFEEDENABLE	TOGGLE	F	Positive Feedback IR Comp
POSFEEDRESISTANCE	QUANT	0	Positive Feedback Resistance (ohm)
ACHSELECT	IQUANT	0	Ach Select
CABLEID	IQUANT	14	Cable ID
DCCALDATE	LABEL	12/22/2019	DC Calibration Date
ACCALDATE	LABEL	12/22/2019	AC Calibration Date
THERMOSELECT	IQUANT	1	Thermo Select
FRAMEWORKVERSION	QUANT	6.33	Framework Version
INSTRUMENTVERSION	LABEL	3.50	Instrument Version
ZCURVE	TABLE
	Pt	Time	Freq	Zreal	Zimag	Zsig	Zmod	Zphz	Idc	Vdc	IERange
	#	s	Hz	ohm	ohm	V	ohm	°	A	V	#
	0	1	1000078	2026.412	-2242.79	1	3022.657	-47.90147	-3.292961E-006	0.0061984	8
	1	1	794390.6	2374.875	-2449.926	1	3412.062	-45.89117	1.136528E-006	0.0051665	8
	2	2	630984.4	2773.068	-2647.613	1	3834.027	-43.67419	-5.439245E-006	0.006374	8
	3	2	501234.4	3176.394	-2840.049	1	4260.91	-41.80025	4.510053E-006	0.0042025	8
	4	2	398109.4	3621.988	-3069.259	1	4747.541	-40.27782	-2.538001E-007	0.0051296	8
	5	3	316265.6	4117.33	-3234.247	1	5235.72	-38.15036	1.130584E-006	0.0048185	8
	6	3	251203.1	4623.073	-3477.169	1	5784.765	-36.94806	6.382658E-006	0.0038959	8
	7	3	199546.9	5253.253	-3595.93	1	6366.112	-34.39222	1.484821E-006	0.0048184	8
	8	4	158578.1	5927.882	-3728.904	1	7003.178	-32.17173	5.430571E-006	0.0041445	8
	9	4	125953.1	6727.808	-3654.769	1	7656.418	-28.51228	-2.733089E-007	0.0049782	7
	10	4	100078.1	7368.177	-3619.128	1	8209.027	-26.15952	-5.595673E-008	0.0050696	7
	11	5	79453.13	8047.417	-3513.878	1	8781.131	-23.58833	-7.462256E-008	0.0053628	7
	12	5	63140.62	8670.241	-3333.755	1	9289.08	-21.03203	1.34221E-008	0.0050954	7
	13	5	50203.12	9236.128	-3095.744	1	9741.13	-18.53	-1.021455E-007	0.0051754	7
	14	6	39890.62	9712.66	-2814.055	1	10112.11	-16.15792	2.049168E-007	0.0047787	7
	15	6	31640.63	10114.54	-2519.279	1	10423.57	-13.98635	-5.61013E-008	0.0052281	7
	16	6	25171.88	10435.34	-2248.729	1	10674.88	-12.16081	-1.083233E-007	0.0052256	7
	17	7	20015.62	10689.37	-2009.023	1	10876.53	-10.64433	-1.064189E-007	0.0052251	7
	18	7	15890.62	10888.07	-1796.78	1	11035.33	-9.37066	1.282567E-007	0.0047893	7
	19	7	12609.37	11125.64	-1443.886	1	11218.94	-7.39452	5.772145E-009	0.0047634	6
	20	8	10078.13	11238.88	-1355.181	1	11320.29	-6.875513	-9.760938E-009	0.0053277	6
	21	8	8015.625	11321.37	-1318.757	1	11397.92	-6.644092	3.673432E-009	0.0051445	6
	22	8	6328.125	11420.64	-1314.155	1	11496	-6.564065	3.37153E-009	0.0051484	6
	23	8	5015.625	11497.72	-1364.404	1	11578.39	-6.767489	4.962664E-009	0.0052262	6
	24	9	3984.375	11564.92	-1457.504	1	11656.4	-7.183002	-5.321304E-009	0.0049163	6
	25	9	3170.956	11645.29	-1612.68	1	11756.43	-7.884368	2.874428E-008	0.0046996	6
	26	9	2527.573	11724.28	-1825.495	1	11865.55	-8.850012	-9.264289E-009	0.0053315	6
	27	10	1976.103	11829.32	-2137.251	1	12020.84	-10.24138	-4.846548E-009	0.0049197	6
	28	10	1577.524	11937.9	-2479.673	1	12192.71	-11.73429	2.909777E-008	0.0047032	6
	29	10	1265.625	12031.93	-2965.335	1	12391.95	-13.84494	2.826641E-008	0.0047015	6
	30	11	998.264	12164.71	-3578.686	1	12680.19	-16.39314	1.822276E-008	0.0049571	6
	31	11	796.875	12330.34	-4313.115	1	13062.94	-19.27967	-1.690063E-009	0.0052338	6
	32	11	627.7902	12541.43	-5275.194	1	13605.7	-22.81267	1.942362E-008	0.0049589	6
	33	12	505.5147	12783.62	-6345.032	1	14271.66	-26.39708	3.456996E-009	0.0051448	6
	34	12	397.9953	13126.7	-7802.396	1	15270.48	-30.72688	1.391877E-009	0.005065	6
	35	12	315.5048	13552.24	-9536.65	1	16571.39	-35.13388	4.092784E-010	0.0050676	6
	36	13	252.4038	14079.58	-11563.06	1	18219.19	-39.39505	5.400035E-010	0.0050578	6
	37	13	198.6229	14819.12	-14210.21	1	20531.35	-43.79836	1.196719E-009	0.0050621	6
	38	13	158.3615	15739.47	-17242.84	1	23346.23	-47.60979	1.261692E-009	0.0050628	6
	39	14	125.558	16982.01	-20980.79	1	26992.26	-51.01303	1.159218E-009	0.0050589	6
	40	14	100.4464	18525.54	-25302.41	1	31359.33	-53.78972	1.011213E-009	0.0050584	6
	41	14	79.00281	20701.43	-30771.57	1	37086.91	-56.06949	4.312673E-010	0.005057	6
	42	15	63.3446	23753.29	-36559.75	1	43598.56	-56.98775	9.932689E-010	0.0050539	6
	43	15	49.86702	27383.93	-44162.51	1	51963.51	-58.19812	1.113918E-009	0.0050515	6
	44	15	39.72458	31684.32	-52317.07	1	61163.49	-58.80002	1.08521E-009	0.0050579	6
	45	16	31.6723	37342.64	-61396.36	1	71860.88	-58.69109	2.962442E-010	0.0050559	6
	46	16	24.93351	44727.27	-72424.77	1	85122.71	-58.30183	8.71379E-010	0.0050543	6
	47	16	19.86229	53219.71	-83890.3	1	99347.5	-57.6091	1.762599E-009	0.0050599	6
	48	16	15.83615	63359.7	-95107.8	1	114280.1	-56.32891	-1.595661E-009	0.0050519	5
	49	17	12.40079	75089.01	-109952.4	1	133146.1	-55.66994	-1.293284E-009	0.0050559	5
	50	17	9.93114	86499.08	-125112.9	1	152103	-55.34124	5.89083E-010	0.0050572	5
	51	18	7.944915	99128.1	-141977.5	1	173158.9	-55.07743	8.017986E-010	0.0050469	5
	52	18	6.317385	113059.9	-161833.3	1	197414.6	-55.0611	6.237489E-010	0.0050505	5
	53	19	5.008013	128379.7	-185725	1	225776.7	-55.34641	2.622314E-010	0.0050478	5
	54	20	3.945707	145695.7	-215175.3	1	259860.8	-55.89797	5.191987E-010	0.0050534	5
	55	22	3.158693	164072.7	-248400.9	1	297696	-56.55461	4.288027E-010	0.0050549	5
	56	23	2.504006	185715.7	-289855.7	1	344248	-57.3516	2.012098E-010	0.0050412	5
	57	24	1.998082	210848.2	-337573.3	1	398010.9	-58.01112	3.700099E-010	0.0050878	5
	58	26	1.584686	239399.7	-395637	1	462429.3	-58.8219	5.336199E-010	0.005069	5
	59	28	1.266892	273486.8	-462549.5	1	537351.9	-59.4059	3.507074E-010	0.0050293	5
	60	30	0.999041	316413.3	-545563.6	1	630679.8	-59.88734	4.365083E-010	0.005013	5
