EXPLAIN
TAG	EISPOT
TITLE	LABEL	Potentiostatic EIS	Test &Identifier
DATE	LABEL	3/17/2020	Date
TIME	LABEL	15:51:44	Time
NOTES	NOTES	1	&Notes...
	
PSTAT	PSTAT	REF600-11020	Potentiostat
VDC	POTEN	0.00000E+000	T	DC &Voltage (V)
FREQINIT	QUANT	1.00000E+006	Initial Fre&q. (Hz)
FREQFINAL	QUANT	1.00000E+000	Final Fre&q. (Hz)
PTSPERDEC	QUANT	1.00000E+001	Points/&decade
VAC	QUANT	2.50000E+001	AC &Voltage (mV rms)
AREA	QUANT	4.00000E-004	&Area (cm^2)
CONDIT	TWOPARAM	F	5.00000E+000	0.00000E+000	Conditionin&g	Time(s)	E(V)
DELAY	TWOPARAM	T	3.00000E+000	0.00000E+000	Init. De&lay	Time(s)	Stab.(mV/s)
SPEED	SELECTOR	0	&Optimize for:
ZGUESS	QUANT	5.00000E+003	E&stimated Z (ohms)
OCVCURVE	TABLE	12
	Pt	T	Vf	Vm	Ach	Over
	#	s	V vs. Ref.	V	V	bits
	0	0.258333	6.91862E-003	6.91862E-003	5.76330E-004	...........
	1	0.516667	6.91893E-003	6.93508E-003	5.78897E-004	...........
	2	0.775	6.92079E-003	6.94659E-003	5.82563E-004	...........
	3	1.03333	6.92570E-003	6.95419E-003	5.79297E-004	...........
	4	1.29167	6.93369E-003	6.96041E-003	5.86230E-004	...........
	5	1.55	6.94300E-003	6.96767E-003	5.80197E-004	...........
	6	1.80833	6.95170E-003	6.96341E-003	5.81363E-004	...........
	7	2.06667	6.95851E-003	6.96771E-003	5.79330E-004	...........
	8	2.325	6.96298E-003	6.97006E-003	5.79397E-004	...........
	9	2.58333	6.96563E-003	6.96757E-003	5.79697E-004	...........
	10	2.84167	6.96724E-003	6.96836E-003	5.76263E-004	...........
	11	3.1	6.96802E-003	6.96437E-003	5.83763E-004	...........
EOC	QUANT	0.006968	Open Circuit (V)
PSTATMODEL	IQUANT	4	Pstat Model
PSTATSECTION	LABEL	REF600-11020	Pstat Section
PSTATSERIALNO	LABEL	11020	Pstat Serial Number
CTRLMODE	IQUANT	1	Control Mode
IESTAB	IQUANT	0	I/E Stability
CASPEED	IQUANT	1	Control Amp Speed
CONVENTION	IQUANT	1	Current Convention
ICHRANGE	IQUANT	2	Ich Range
ICHRANGEMODE	TOGGLE	F	Ich Auto Range
ICHOFFSETENABLE	TOGGLE	T	Ich Offset Enable
ICHOFFSET	QUANT	0	Ich Offset (V)
ICHFILTER	IQUANT	3	Ich Filter
VCHRANGE	IQUANT	2	Vch Range
VCHRANGEMODE	TOGGLE	F	Vch Auto Range
VCHOFFSETENABLE	TOGGLE	T	Vch Offset Enable
VCHOFFSET	QUANT	0	Vch Offset (V)
VCHFILTER	IQUANT	3	Vch Filter
ACHRANGE	IQUANT	2	Ach Range
ACHOFFSETENABLE	TOGGLE	F	Ach Offset Enable
ACHOFFSET	QUANT	0	Ach Offset (V)
ACHFILTER	IQUANT	3	Ach Filter
IERANGELOWERLIMIT	IQUANT	1	I/E Range Lower Limit
IERANGEMODE	TOGGLE	F	I/E AutoRange
IERANGE	IQUANT	6	I/E Range
POSFEEDENABLE	TOGGLE	F	Positive Feedback IR Comp
POSFEEDRESISTANCE	QUANT	0	Positive Feedback Resistance (ohm)
ACHSELECT	IQUANT	0	Ach Select
CABLEID	IQUANT	14	Cable ID
DCCALDATE	LABEL	2/27/2020	DC Calibration Date
ACCALDATE	LABEL	2/27/2020	AC Calibration Date
THERMOSELECT	IQUANT	1	Thermo Select
FRAMEWORKVERSION	QUANT	6.33	Framework Version
INSTRUMENTVERSION	LABEL	3.50	Instrument Version
ZCURVE	TABLE
	Pt	Time	Freq	Zreal	Zimag	Zsig	Zmod	Zphz	Idc	Vdc	IERange
	#	s	Hz	ohm	ohm	V	ohm	°	A	V	#
	0	1	1000078	1710.064	-1895.432	1	2552.838	-47.94314	2.994519E-008	0.0095016	8
	1	1	794390.6	2080.113	-2028.829	1	2905.687	-44.28493	9.743233E-008	0.0090707	8
	2	1	630984.4	2477.005	-2109.373	1	3253.461	-40.41711	2.715187E-008	0.0089235	8
	3	2	501234.4	2877.942	-2131.091	1	3581.075	-36.51962	1.945359E-008	0.0087894	8
	4	2	398109.4	3270.915	-2101.76	1	3887.966	-32.72319	4.048728E-008	0.0087408	8
	5	2	316265.6	3625.553	-2038.733	1	4159.455	-29.35005	4.904681E-008	0.0087189	8
	6	3	251203.1	3951.202	-1957.66	1	4409.584	-26.35654	3.962778E-008	0.008685	8
	7	3	199546.9	4231.531	-1867.821	1	4625.43	-23.81692	1.454713E-008	0.0087096	8
	8	3	158578.1	4479.9	-1787.515	1	4823.351	-21.75239	7.559917E-008	0.0086561	8
	9	4	125953.1	4745.785	-1666.9	1	5030.013	-19.35321	-2.175754E-011	0.0086229	7
	10	4	100078.1	4922.218	-1638.262	1	5187.69	-18.409	7.93376E-010	0.0086065	7
	11	4	79453.13	5110.171	-1635.123	1	5365.396	-17.74333	9.230252E-010	0.0086055	7
	12	5	63140.62	5294.324	-1656.64	1	5547.461	-17.37536	1.754449E-009	0.0086043	7
	13	5	50203.12	5475.04	-1703.551	1	5733.947	-17.28345	5.261807E-010	0.0086005	7
	14	5	39890.62	5662.782	-1780.074	1	5935.972	-17.45035	1.743531E-009	0.0086008	7
	15	6	31640.63	5857.719	-1887.375	1	6154.271	-17.85909	2.205571E-009	0.0086033	7
	16	6	25171.88	6062.088	-2024.922	1	6391.34	-18.47089	4.879894E-010	0.0085899	7
	17	6	20015.62	6281.444	-2197.411	1	6654.709	-19.28115	1.521577E-009	0.0085927	7
	18	6	15890.62	6523.463	-2406.064	1	6953.037	-20.2456	9.985386E-010	0.0085933	7
	19	7	12609.37	6788.331	-2664.389	1	7292.489	-21.42978	2.528588E-009	0.0085994	7
	20	7	10078.13	7070.247	-2956.54	1	7663.519	-22.69304	2.174931E-009	0.0085922	7
	21	7	8015.625	7387.808	-3305.951	1	8093.764	-24.10792	1.44375E-009	0.0085918	7
	22	8	6328.125	7752.027	-3726.609	1	8601.252	-25.67485	4.950197E-010	0.0085761	7
	23	8	5015.625	8155.5	-4219.901	1	9182.579	-27.35841	2.09338E-009	0.008595	7
	24	8	3984.375	8621.39	-4757.86	1	9847.11	-28.89286	5.327018E-010	0.0086443	6
	25	9	3170.956	9123.203	-5408.99	1	10606.13	-30.66297	-2.053913E-012	0.008643	6
	26	9	2527.573	9681.19	-6162.966	1	11476.4	-32.48048	3.133021E-010	0.0086434	6
	27	9	1976.103	10373.33	-7114.367	1	12578.56	-34.44359	1.321844E-010	0.0086387	6
	28	10	1577.524	11092.6	-8122.073	1	13748.23	-36.21183	4.053342E-010	0.0086438	6
	29	10	1265.625	11891.31	-9254.995	1	15068.45	-37.89359	5.164389E-010	0.0086445	6
	30	10	998.264	12871.33	-10667.44	1	16717.22	-39.65112	1.372801E-010	0.0086414	6
	31	11	796.875	13912.76	-12208.05	1	18509.49	-41.26603	1.06227E-010	0.0086428	6
	32	11	627.7902	15144.29	-14111.02	1	20699.53	-42.9772	3.10209E-010	0.0086434	6
	33	11	505.5147	16377	-16111.94	1	22973.92	-44.53257	2.604526E-010	0.0086466	6
	34	12	397.9953	17878.29	-18724.58	1	25889.05	-46.32449	2.71703E-010	0.008657	6
	35	12	315.5048	19494.35	-21749.47	1	29207.35	-48.12969	2.854132E-010	0.0086545	6
	36	12	252.4038	21223.44	-25230.01	1	32969.5	-49.92951	2.565432E-010	0.008652	6
	37	13	198.6229	23329.96	-29743.27	1	37801.44	-51.89015	2.057515E-010	0.0086524	6
	38	13	158.3615	25636.05	-34908.51	1	43310.64	-53.70725	1.910396E-010	0.0086494	6
	39	13	125.558	28421.46	-41278.04	1	50116.43	-55.45115	2.572901E-010	0.0086476	6
	40	14	100.4464	31619.29	-48615.93	1	57993.86	-56.96045	2.468357E-010	0.0086418	6
	41	14	79.00281	35777.92	-58058.21	1	68196.88	-58.35687	1.302671E-010	0.0086468	6
	42	14	63.3446	40427.22	-68382.7	1	79439	-59.40881	1.528789E-010	0.0086444	6
	43	15	49.86702	46570.09	-81631.89	1	93981.59	-60.29572	2.425701E-010	0.0086409	6
	44	15	39.72458	53736.04	-96430.1	1	110391.7	-60.87109	-6.994962E-011	0.0086515	5
	45	15	31.6723	62437.77	-113801	1	129804.3	-61.2483	5.790796E-011	0.0086467	5
	46	16	24.93351	73683.59	-135257	1	154025.1	-61.41989	-6.451765E-011	0.008647	5
	47	16	19.86229	86647.67	-159037.6	1	181109.9	-61.41735	-4.917685E-010	0.0086478	5
	48	16	15.83615	102459	-186125.3	1	212462.8	-61.16793	4.431881E-010	0.0086479	5
	49	16	12.40079	122858.5	-219800.6	1	251806.5	-60.7968	6.229352E-010	0.0086356	5
	50	17	9.93114	144559.5	-254596.9	1	292774.7	-60.41219	6.605794E-010	0.008645	5
	51	17	7.944915	170146.4	-295134.1	1	340666.9	-60.03632	2.798541E-011	0.0086415	5
	52	18	6.317385	200539.6	-342526.7	1	396913.9	-59.65224	9.726035E-011	0.00865	5
	53	18	5.008013	236777.5	-398024.2	1	463127.3	-59.25234	2.402379E-010	0.0086535	5
	54	19	3.945707	281067.5	-464186.1	1	542648.8	-58.80484	1.712181E-010	0.0086419	5
	55	20	3.158693	328979.7	-534936.4	1	628000.5	-58.40897	1.7156E-010	0.0086637	5
	56	21	2.504006	389091.8	-619197.5	1	731298.8	-57.85553	1.803514E-011	0.0086593	5
	57	22	1.998082	455884.9	-711650.6	1	845149.5	-57.35629	5.092583E-011	0.0086395	5
	58	24	1.584686	540208	-818973.8	1	981093	-56.59053	1.260784E-010	0.0086831	5
	59	26	1.266892	634379.2	-939351	1	1133498	-55.96736	9.229995E-011	0.008679	4
	60	28	0.999041	748010.6	-1079326	1	1313189	-55.27669	9.980915E-011	0.0086569	4
