EXPLAIN
TAG	EISPOT
TITLE	LABEL	Potentiostatic EIS	Test &Identifier
DATE	LABEL	1/14/2020	Date
TIME	LABEL	18:38:15	Time
NOTES	NOTES	5	&Notes...
	
	
	
	
	
PSTAT	PSTAT	REF600-11020	Potentiostat
VDC	POTEN	0.00000E+000	T	DC &Voltage (V)
FREQINIT	QUANT	1.00000E+006	Initial Fre&q. (Hz)
FREQFINAL	QUANT	1.00000E+000	Final Fre&q. (Hz)
PTSPERDEC	QUANT	1.00000E+001	Points/&decade
VAC	QUANT	2.50000E+001	AC &Voltage (mV rms)
AREA	QUANT	1.00000E-001	&Area (cm^2)
CONDIT	TWOPARAM	T	5.00000E+000	0.00000E+000	Conditionin&g	Time(s)	E(V)
DELAY	TWOPARAM	T	5.00000E+000	0.00000E+000	Init. De&lay	Time(s)	Stab.(mV/s)
SPEED	SELECTOR	0	&Optimize for:
ZGUESS	QUANT	5.00000E+002	E&stimated Z (ohms)
OCVCURVE	TABLE	19
	Pt	T	Vf	Vm	Ach	Over
	#	s	V vs. Ref.	V	V	bits
	0	0.258333	4.53732E-003	4.53732E-003	6.50580E-004	...........
	1	0.516667	4.53476E-003	4.40352E-003	6.53080E-004	...........
	2	0.775	4.52071E-003	4.36272E-003	6.52646E-004	...........
	3	1.03333	4.48619E-003	4.31158E-003	6.55613E-004	...........
	4	1.29167	4.43292E-003	4.20578E-003	6.55413E-004	...........
	5	1.55	4.36901E-003	4.15867E-003	6.52946E-004	...........
	6	1.80833	4.30112E-003	4.14541E-003	6.53713E-004	...........
	7	2.06667	4.23639E-003	4.07359E-003	6.53413E-004	...........
	8	2.325	4.17972E-003	4.01823E-003	6.54613E-004	...........
	9	2.58333	4.12845E-003	3.96677E-003	6.53413E-004	...........
	10	2.84167	4.07907E-003	4.00566E-003	6.55380E-004	...........
	11	3.1	4.03945E-003	4.15735E-003	6.48880E-004	...........
	12	3.35833	4.03943E-003	4.77251E-003	6.47013E-004	...........
	13	3.61667	4.12055E-003	4.58856E-003	6.52280E-004	...........
	14	3.875	4.27831E-003	4.49215E-003	6.45046E-004	...........
	15	4.13333	4.43409E-003	4.40559E-003	6.45980E-004	...........
	16	4.39167	4.50946E-003	4.31608E-003	6.47846E-004	...........
	17	4.65	4.49522E-003	4.27032E-003	6.50080E-004	...........
	18	4.90833	4.42246E-003	3.82723E-003	6.52680E-004	...........
EOC	QUANT	0.0044225	Open Circuit (V)
PSTATMODEL	IQUANT	4	Pstat Model
PSTATSECTION	LABEL	REF600-11020	Pstat Section
PSTATSERIALNO	LABEL	11020	Pstat Serial Number
CTRLMODE	IQUANT	1	Control Mode
IESTAB	IQUANT	0	I/E Stability
CASPEED	IQUANT	1	Control Amp Speed
CONVENTION	IQUANT	1	Current Convention
ICHRANGE	IQUANT	2	Ich Range
ICHRANGEMODE	TOGGLE	F	Ich Auto Range
ICHOFFSETENABLE	TOGGLE	T	Ich Offset Enable
ICHOFFSET	QUANT	0	Ich Offset (V)
ICHFILTER	IQUANT	3	Ich Filter
VCHRANGE	IQUANT	2	Vch Range
VCHRANGEMODE	TOGGLE	F	Vch Auto Range
VCHOFFSETENABLE	TOGGLE	T	Vch Offset Enable
VCHOFFSET	QUANT	0	Vch Offset (V)
VCHFILTER	IQUANT	3	Vch Filter
ACHRANGE	IQUANT	2	Ach Range
ACHOFFSETENABLE	TOGGLE	F	Ach Offset Enable
ACHOFFSET	QUANT	0	Ach Offset (V)
ACHFILTER	IQUANT	3	Ach Filter
IERANGELOWERLIMIT	IQUANT	1	I/E Range Lower Limit
IERANGEMODE	TOGGLE	F	I/E AutoRange
IERANGE	IQUANT	7	I/E Range
POSFEEDENABLE	TOGGLE	F	Positive Feedback IR Comp
POSFEEDRESISTANCE	QUANT	0	Positive Feedback Resistance (ohm)
ACHSELECT	IQUANT	0	Ach Select
CABLEID	IQUANT	14	Cable ID
DCCALDATE	LABEL	12/22/2019	DC Calibration Date
ACCALDATE	LABEL	12/22/2019	AC Calibration Date
THERMOSELECT	IQUANT	1	Thermo Select
FRAMEWORKVERSION	QUANT	6.33	Framework Version
INSTRUMENTVERSION	LABEL	3.50	Instrument Version
ZCURVE	TABLE
	Pt	Time	Freq	Zreal	Zimag	Zsig	Zmod	Zphz	Idc	Vdc	IERange
	#	s	Hz	ohm	ohm	V	ohm	°	A	V	#
	0	1	1000078	2409.473	-1934.937	1	3090.233	-38.76633	1.80116E-006	0.0064872	8
	1	2	794390.6	2794.579	-1914.865	1	3387.681	-34.4192	-1.001977E-006	0.0063785	8
	2	2	630984.4	3173.364	-1825.755	1	3661.096	-29.91343	-8.678549E-007	0.0064974	8
	3	2	501234.4	3502.586	-1690.711	1	3889.294	-25.76678	-1.714433E-006	0.0065658	8
	4	3	398109.4	3778.57	-1522.962	1	4073.942	-21.95202	1.145656E-007	0.0062425	8
	5	3	316265.6	4007.088	-1353.946	1	4229.648	-18.66948	2.791725E-006	0.005704	8
	6	3	251203.1	4174.145	-1196.515	1	4342.25	-15.9949	-1.013199E-006	0.0062735	8
	7	4	199546.9	4305.298	-1050.961	1	4431.717	-13.71811	-1.067621E-006	0.0064189	8
	8	4	158578.1	4425.448	-915.2183	1	4519.094	-11.68451	-2.925467E-007	0.006092	8
	9	4	125953.1	4521.353	-795.0681	1	4590.726	-9.97335	5.030219E-007	0.0049356	7
	10	5	100078.1	4580.438	-716.0134	1	4636.064	-8.884565	-2.102547E-008	0.0061357	7
	11	5	79453.13	4640.821	-664.2386	1	4688.116	-8.145397	3.795114E-009	0.0060651	7
	12	5	63140.62	4697.035	-630.5095	1	4739.165	-7.645432	-7.48927E-009	0.0060486	7
	13	6	50203.12	4749.353	-611.9614	1	4788.617	-7.342194	-3.835629E-009	0.0060556	7
	14	6	39890.62	4799.395	-610.5273	1	4838.071	-7.249614	-3.996399E-008	0.0061358	7
	15	6	31640.63	4849.685	-626.2726	1	4889.955	-7.358269	-4.07125E-008	0.0061157	7
	16	7	25171.88	4902.515	-656.6002	1	4946.29	-7.628303	-2.14646E-008	0.0061195	7
	17	7	20015.62	4957.297	-704.6307	1	5007.125	-8.089836	4.785579E-008	0.0059852	7
	18	7	15890.62	5018.539	-769.8995	1	5077.25	-8.721809	6.214057E-008	0.0060133	7
	19	7	12609.37	5085.02	-857.394	1	5156.797	-9.57072	-7.990871E-009	0.0060385	7
	20	8	10078.13	5155.942	-962.799	1	5245.066	-10.57735	-4.221584E-008	0.0061965	7
	21	8	8015.625	5235.518	-1092.895	1	5348.37	-11.79096	-1.850011E-008	0.0060492	7
	22	8	6328.125	5327.666	-1258.475	1	5474.284	-13.29051	4.635851E-009	0.0060448	7
	23	9	5015.625	5429.107	-1456.452	1	5621.072	-15.01701	4.875125E-008	0.0059749	7
	24	9	3984.375	5544.126	-1694.666	1	5797.347	-16.99676	-2.903435E-008	0.0060889	7
	25	9	3170.956	5674.909	-1979.948	1	6010.39	-19.23363	6.218277E-008	0.0060071	7
	26	10	2527.573	5819.329	-2318.533	1	6264.199	-21.7233	-1.296163E-009	0.0060379	7
	27	10	1976.103	6001.211	-2764.658	1	6607.41	-24.73474	1.429689E-009	0.0060721	7
	28	10	1577.524	6191.914	-3253.419	1	6994.607	-27.7188	-7.823764E-009	0.0060298	7
	29	11	1265.625	6411.776	-3832.558	1	7469.898	-30.86834	1.242649E-008	0.0059968	7
	30	11	998.264	6677.828	-4581.119	1	8098.15	-34.45087	8.123987E-008	0.0059403	7
	31	11	796.875	6973.224	-5438.449	1	8843.223	-37.95083	-2.782025E-008	0.0060845	7
	32	12	627.7902	7335.433	-6536.313	1	9825.07	-41.70296	-5.891617E-010	0.0061643	6
	33	12	505.5147	7721.332	-7746.03	1	10937.09	-45.09149	-5.379277E-009	0.0061063	6
	34	12	397.9953	8214.442	-9358.214	1	12452.04	-48.72402	1.139251E-009	0.0060611	6
	35	13	315.5048	8784.668	-11269.09	1	14288.56	-52.06229	5.005401E-010	0.0060598	6
	36	13	252.4038	9435.996	-13494.17	1	16466.05	-55.03627	7.329906E-010	0.0060532	6
	37	13	198.6229	10277.05	-16396.12	1	19350.72	-57.92061	9.556775E-010	0.006054	6
	38	14	158.3615	11236.72	-19735.83	1	22710.5	-60.3447	9.8107E-010	0.0060519	6
	39	14	125.558	12433.55	-23877.98	1	26921.2	-62.49347	9.696113E-010	0.0060622	6
	40	14	100.4464	13831.94	-28712.2	1	31870.25	-64.27782	1.169042E-009	0.0060549	6
	41	14	79.00281	15641.27	-35017.29	1	38351.79	-65.93098	1.161566E-009	0.0060518	6
	42	15	63.3446	17832.2	-41855.35	1	45495.69	-66.92389	7.829309E-010	0.0060474	6
	43	15	49.86702	20677.19	-51165.39	1	55185.53	-67.99516	8.150597E-010	0.0060479	6
	44	16	39.72458	24016.52	-61896.25	1	66392.31	-68.79312	9.738654E-010	0.00605	6
	45	16	31.6723	28354.61	-74648.52	1	79852.27	-69.20114	9.59698E-010	0.0060466	6
	46	16	24.93351	34337.47	-91028.63	1	97289.6	-69.33272	1.202545E-009	0.0060458	6
	47	17	19.86229	41652.62	-109454	1	117111.6	-69.16573	1.208271E-009	0.0060489	5
	48	17	15.83615	51667.21	-130558.8	1	140410.4	-68.40936	9.574761E-010	0.0060408	5
	49	17	12.40079	65335.98	-158576.3	1	171508.7	-67.60756	1.497731E-009	0.0060416	5
	50	17	9.93114	81359.11	-187862.1	1	204722.9	-66.58358	1.235261E-009	0.0060424	5
	51	18	7.944915	100185	-220333.2	1	242040.8	-65.54882	-7.591005E-010	0.0060462	5
	52	18	6.317385	128509.1	-258929.5	1	289065.9	-63.60437	4.587458E-010	0.0060342	5
	53	19	5.008013	162131.2	-301428.8	1	342265.7	-61.72528	4.984662E-010	0.0060486	5
	54	20	3.945707	203483.3	-347969.3	1	403098.2	-59.68203	-2.813601E-011	0.0060451	5
	55	21	3.158693	249488	-393403.5	1	465843.9	-57.61801	6.044565E-012	0.0060272	5
	56	23	2.504006	304973.6	-442806	1	537667.3	-55.44367	3.201095E-010	0.0060316	5
	57	24	1.998082	362805.1	-493328.9	1	612373.2	-53.66841	3.272752E-010	0.0060499	5
	58	26	1.584686	428344.4	-545607.8	1	693661.8	-51.86534	1.360481E-010	0.0060123	5
	59	28	1.266892	496453.4	-601756.3	1	780113.2	-50.47711	4.103314E-011	0.005992	5
	60	30	0.999041	570683.3	-667812.6	1	878437.8	-49.48426	2.648167E-011	0.0060005	5
