EXPLAIN
TAG	EISPOT
TITLE	LABEL	Potentiostatic EIS	Test &Identifier
DATE	LABEL	3/17/2020	Date
TIME	LABEL	15:35:04	Time
NOTES	NOTES	1	&Notes...
	
PSTAT	PSTAT	REF600-11020	Potentiostat
VDC	POTEN	0.00000E+000	T	DC &Voltage (V)
FREQINIT	QUANT	1.00000E+006	Initial Fre&q. (Hz)
FREQFINAL	QUANT	1.00000E+000	Final Fre&q. (Hz)
PTSPERDEC	QUANT	1.00000E+001	Points/&decade
VAC	QUANT	2.50000E+001	AC &Voltage (mV rms)
AREA	QUANT	4.00000E-004	&Area (cm^2)
CONDIT	TWOPARAM	F	5.00000E+000	0.00000E+000	Conditionin&g	Time(s)	E(V)
DELAY	TWOPARAM	T	3.00000E+000	0.00000E+000	Init. De&lay	Time(s)	Stab.(mV/s)
SPEED	SELECTOR	0	&Optimize for:
ZGUESS	QUANT	5.00000E+003	E&stimated Z (ohms)
OCVCURVE	TABLE	12
	Pt	T	Vf	Vm	Ach	Over
	#	s	V vs. Ref.	V	V	bits
	0	0.258333	3.74408E-002	3.74408E-002	6.54195E-004	...........
	1	0.516667	3.74410E-002	3.74508E-002	6.45962E-004	...........
	2	0.775	3.74422E-002	3.74590E-002	6.49929E-004	...........
	3	1.03333	3.74453E-002	3.74623E-002	6.51195E-004	...........
	4	1.29167	3.74503E-002	3.74681E-002	6.51129E-004	...........
	5	1.55	3.74562E-002	3.74750E-002	6.50229E-004	...........
	6	1.80833	3.74623E-002	3.74824E-002	6.39896E-004	...........
	7	2.06667	3.74684E-002	3.74865E-002	6.43629E-004	...........
	8	2.325	3.74746E-002	3.74927E-002	6.46562E-004	...........
	9	2.58333	3.74807E-002	3.75022E-002	6.46262E-004	...........
	10	2.84167	3.74869E-002	3.75057E-002	6.44862E-004	...........
	11	3.1	3.74933E-002	3.75089E-002	6.43729E-004	...........
EOC	QUANT	0.0374933	Open Circuit (V)
PSTATMODEL	IQUANT	4	Pstat Model
PSTATSECTION	LABEL	REF600-11020	Pstat Section
PSTATSERIALNO	LABEL	11020	Pstat Serial Number
CTRLMODE	IQUANT	1	Control Mode
IESTAB	IQUANT	0	I/E Stability
CASPEED	IQUANT	1	Control Amp Speed
CONVENTION	IQUANT	1	Current Convention
ICHRANGE	IQUANT	2	Ich Range
ICHRANGEMODE	TOGGLE	F	Ich Auto Range
ICHOFFSETENABLE	TOGGLE	T	Ich Offset Enable
ICHOFFSET	QUANT	0	Ich Offset (V)
ICHFILTER	IQUANT	3	Ich Filter
VCHRANGE	IQUANT	2	Vch Range
VCHRANGEMODE	TOGGLE	F	Vch Auto Range
VCHOFFSETENABLE	TOGGLE	T	Vch Offset Enable
VCHOFFSET	QUANT	0	Vch Offset (V)
VCHFILTER	IQUANT	3	Vch Filter
ACHRANGE	IQUANT	2	Ach Range
ACHOFFSETENABLE	TOGGLE	F	Ach Offset Enable
ACHOFFSET	QUANT	0	Ach Offset (V)
ACHFILTER	IQUANT	3	Ach Filter
IERANGELOWERLIMIT	IQUANT	1	I/E Range Lower Limit
IERANGEMODE	TOGGLE	F	I/E AutoRange
IERANGE	IQUANT	7	I/E Range
POSFEEDENABLE	TOGGLE	F	Positive Feedback IR Comp
POSFEEDRESISTANCE	QUANT	0	Positive Feedback Resistance (ohm)
ACHSELECT	IQUANT	0	Ach Select
CABLEID	IQUANT	14	Cable ID
DCCALDATE	LABEL	2/27/2020	DC Calibration Date
ACCALDATE	LABEL	2/27/2020	AC Calibration Date
THERMOSELECT	IQUANT	1	Thermo Select
FRAMEWORKVERSION	QUANT	6.33	Framework Version
INSTRUMENTVERSION	LABEL	3.50	Instrument Version
ZCURVE	TABLE
	Pt	Time	Freq	Zreal	Zimag	Zsig	Zmod	Zphz	Idc	Vdc	IERange
	#	s	Hz	ohm	ohm	V	ohm	°	A	V	#
	0	1	1000078	1980.766	-1501.982	1	2485.836	-37.17244	1.046766E-008	0.0397758	8
	1	2	794390.6	2287.263	-1488.1	1	2728.738	-33.04814	3.642177E-008	0.0394845	8
	2	2	630984.4	2575.627	-1427.298	1	2944.662	-28.99328	4.819657E-008	0.0393658	8
	3	2	501234.4	2832.434	-1329.642	1	3128.998	-25.14697	3.010858E-008	0.0392564	8
	4	3	398109.4	3046.598	-1214.436	1	3279.727	-21.73323	3.826963E-008	0.0391919	8
	5	3	316265.6	3221.434	-1092.571	1	3401.668	-18.73471	4.863385E-008	0.0391946	8
	6	3	251203.1	3362.586	-978.165	1	3501.969	-16.21953	4.692724E-008	0.0391778	8
	7	3	199546.9	3474.403	-874.4152	1	3582.747	-14.12645	3.288388E-008	0.0391614	8
	8	4	158578.1	3565.254	-789.9958	1	3651.73	-12.49384	3.724866E-008	0.03916	8
	9	4	125953.1	3667.485	-669.4143	1	3728.077	-10.34414	2.582884E-009	0.0391148	7
	10	4	100078.1	3718.318	-627.2325	1	3770.85	-9.57492	1.541098E-010	0.0390965	7
	11	5	79453.13	3775.614	-610.2318	1	3824.61	-9.181008	2.015275E-009	0.0391004	7
	12	5	63140.62	3831.667	-606.6711	1	3879.397	-8.997004	7.619232E-010	0.0390867	7
	13	5	50203.12	3887.616	-615.7413	1	3936.077	-9.000048	8.713683E-010	0.0390865	7
	14	6	39890.62	3945.671	-639.1844	1	3997.109	-9.201771	1.360491E-009	0.0390886	7
	15	6	31640.63	4007.349	-677.212	1	4064.168	-9.59193	2.03402E-009	0.0390842	7
	16	6	25171.88	4073.258	-729.0832	1	4137.994	-10.14806	1.172994E-009	0.0390829	7
	17	7	20015.62	4144.938	-796.5276	1	4220.778	-10.87785	1.673095E-009	0.0390823	7
	18	7	15890.62	4224.998	-881.0041	1	4315.875	-11.77864	1.651198E-009	0.0390812	7
	19	7	12609.37	4314.196	-983.537	1	4424.888	-12.84263	1.129255E-009	0.0390821	7
	20	8	10078.13	4411.489	-1103.539	1	4547.42	-14.0444	2.845109E-009	0.0390856	7
	21	8	8015.625	4522.558	-1247.959	1	4691.581	-15.42636	2.75291E-009	0.0390818	7
	22	8	6328.125	4652.226	-1423.342	1	4865.09	-17.01142	1.44964E-009	0.0390805	7
	23	9	5015.625	4797.357	-1627.309	1	5065.844	-18.73742	3.037393E-009	0.0390859	7
	24	9	3984.375	4959.504	-1862.35	1	5297.644	-20.58173	1.981022E-009	0.039073	7
	25	9	3170.956	5142.478	-2136.391	1	5568.594	-22.55995	2.067021E-009	0.0390692	7
	26	10	2527.573	5349.182	-2453.317	1	5884.939	-24.6378	1.74198E-009	0.0390725	7
	27	10	1976.103	5604.645	-2854.429	1	6289.659	-26.98961	2.031055E-009	0.0390638	7
	28	10	1577.524	5871.756	-3290.293	1	6730.791	-29.26449	3.442467E-009	0.0390741	7
	29	10	1265.625	6168.555	-3778.844	1	7233.999	-31.49155	2.269498E-009	0.0390727	7
	30	11	998.264	6528.356	-4408.397	1	7877.398	-34.02994	2.985188E-009	0.0390733	7
	31	11	796.875	6923.919	-5105.221	1	8602.555	-36.4025	3.57731E-009	0.0390793	7
	32	11	627.7902	7400.131	-5969.041	1	9507.44	-38.89009	1.812301E-009	0.0390656	7
	33	12	505.5147	7899.735	-6897.45	1	10487.17	-41.125	-4.092865E-010	0.0391274	6
	34	12	397.9953	8525.457	-8112.962	1	11768.75	-43.57983	4.469152E-010	0.0391368	6
	35	12	315.5048	9232.3	-9515.72	1	13258.37	-45.86611	4.377465E-010	0.0391363	6
	36	13	252.4038	10018.8	-11109.96	1	14960.2	-47.95631	4.414878E-010	0.0391311	6
	37	13	198.6229	11005.27	-13141.39	1	17140.95	-50.05548	3.658941E-010	0.0391309	6
	38	13	158.3615	12099.89	-15420.54	1	19601.03	-51.88013	3.809997E-010	0.0391296	6
	39	14	125.558	13420.03	-18181.63	1	22597.98	-53.56862	4.189269E-010	0.0391304	6
	40	14	100.4464	14910.78	-21306.97	1	26006.12	-55.01539	3.202941E-010	0.0391287	6
	41	14	79.00281	16797.54	-25274	1	30346.87	-56.39129	2.795238E-010	0.0391298	6
	42	15	63.3446	18822.63	-29568.02	1	35050.8	-57.51969	2.296247E-010	0.0391301	6
	43	15	49.86702	21358.64	-35051.33	1	41046.16	-58.64383	2.778276E-010	0.0391207	6
	44	15	39.72458	24134.24	-41229.06	1	47773.39	-59.65659	2.375816E-010	0.0391356	6
	45	16	31.6723	27296.81	-48550.74	1	55698.2	-60.65388	4.346224E-011	0.0391253	6
	46	16	24.93351	31136.41	-57810.09	1	65661.88	-61.69317	2.13975E-010	0.0391242	6
	47	16	19.86229	35374.41	-68442.66	1	77043.79	-62.66794	-3.823923E-010	0.0391273	6
	48	17	15.83615	40397.98	-81144.21	1	90644.25	-63.53339	8.421385E-010	0.0391338	6
	49	17	12.40079	46890.04	-97695.3	1	108365.3	-64.36076	9.636821E-010	0.03913	5
	50	17	9.93114	54096.55	-115828	1	127838	-64.96545	1.185719E-009	0.0391294	5
	51	18	7.944915	62810.57	-137682.8	1	151333.1	-65.47763	6.097886E-010	0.0391267	5
	52	18	6.317385	74090.24	-164369.9	1	180296.5	-65.73639	6.268304E-011	0.0391446	5
	53	19	5.008013	88558.82	-196617.2	1	215640.9	-65.75261	1.803654E-010	0.0391322	5
	54	20	3.945707	107254.5	-235844	1	259086.7	-65.54544	3.982864E-010	0.0391288	5
	55	21	3.158693	129432.6	-278287.8	1	306915.1	-65.05671	1.225345E-010	0.0391458	5
	56	22	2.504006	158439.1	-329867.1	1	365944.3	-64.34447	-6.470195E-011	0.0391305	5
	57	23	1.998082	193266.1	-385869.3	1	431563.4	-63.39559	1.415946E-010	0.0391575	5
	58	24	1.584686	237511.7	-452909.2	1	511408.4	-62.32688	1.864939E-010	0.0391788	5
	59	26	1.266892	288131.6	-524245.5	1	598208.3	-61.20628	1.420568E-010	0.0391519	5
	60	29	0.999041	353672.6	-607495.3	1	702947.3	-59.79282	1.239293E-010	0.0391225	5
