EXPLAIN
TAG	EISPOT
TITLE	LABEL	Potentiostatic EIS	Test &Identifier
DATE	LABEL	6/6/2020	Date
TIME	LABEL	14:01:43	Time
NOTES	NOTES	1	&Notes...
	
PSTAT	PSTAT	REF600-11020	Potentiostat
VDC	POTEN	0.00000E+000	T	DC &Voltage (V)
FREQINIT	QUANT	1.00000E+006	Initial Fre&q. (Hz)
FREQFINAL	QUANT	1.00000E+000	Final Fre&q. (Hz)
PTSPERDEC	QUANT	1.00000E+001	Points/&decade
VAC	QUANT	2.50000E+001	AC &Voltage (mV rms)
AREA	QUANT	2.50000E-001	&Area (cm^2)
CONDIT	TWOPARAM	F	5.00000E+000	0.00000E+000	Conditionin&g	Time(s)	E(V)
DELAY	TWOPARAM	T	3.00000E+000	0.00000E+000	Init. De&lay	Time(s)	Stab.(mV/s)
SPEED	SELECTOR	0	&Optimize for:
ZGUESS	QUANT	1.00000E+003	E&stimated Z (ohms)
OCVCURVE	TABLE	12
	Pt	T	Vf	Vm	Ach	Over
	#	s	V vs. Ref.	V	V	bits
	0	0.258333	6.53750E-002	6.53750E-002	6.63362E-004	...........
	1	0.516667	6.53750E-002	6.53747E-002	6.55662E-004	...........
	2	0.775	6.53749E-002	6.53721E-002	6.54862E-004	...........
	3	1.03333	6.53745E-002	6.53667E-002	6.55995E-004	...........
	4	1.29167	6.53732E-002	6.53646E-002	6.56362E-004	...........
	5	1.55	6.53710E-002	6.53609E-002	6.52662E-004	...........
	6	1.80833	6.53680E-002	6.53591E-002	6.60062E-004	...........
	7	2.06667	6.53649E-002	6.53573E-002	6.61762E-004	...........
	8	2.325	6.53619E-002	6.53520E-002	6.59995E-004	...........
	9	2.58333	6.53591E-002	6.53463E-002	6.57762E-004	...........
	10	2.84167	6.53558E-002	6.53428E-002	6.61829E-004	...........
	11	3.1	6.53519E-002	6.53417E-002	6.57595E-004	...........
EOC	QUANT	0.0653519	Open Circuit (V)
PSTATMODEL	IQUANT	4	Pstat Model
PSTATSECTION	LABEL	REF600-11020	Pstat Section
PSTATSERIALNO	LABEL	11020	Pstat Serial Number
CTRLMODE	IQUANT	1	Control Mode
IESTAB	IQUANT	0	I/E Stability
CASPEED	IQUANT	1	Control Amp Speed
CONVENTION	IQUANT	1	Current Convention
ICHRANGE	IQUANT	2	Ich Range
ICHRANGEMODE	TOGGLE	F	Ich Auto Range
ICHOFFSETENABLE	TOGGLE	T	Ich Offset Enable
ICHOFFSET	QUANT	0	Ich Offset (V)
ICHFILTER	IQUANT	3	Ich Filter
VCHRANGE	IQUANT	2	Vch Range
VCHRANGEMODE	TOGGLE	F	Vch Auto Range
VCHOFFSETENABLE	TOGGLE	T	Vch Offset Enable
VCHOFFSET	QUANT	0	Vch Offset (V)
VCHFILTER	IQUANT	3	Vch Filter
ACHRANGE	IQUANT	2	Ach Range
ACHOFFSETENABLE	TOGGLE	F	Ach Offset Enable
ACHOFFSET	QUANT	0	Ach Offset (V)
ACHFILTER	IQUANT	3	Ach Filter
IERANGELOWERLIMIT	IQUANT	1	I/E Range Lower Limit
IERANGEMODE	TOGGLE	F	I/E AutoRange
IERANGE	IQUANT	8	I/E Range
POSFEEDENABLE	TOGGLE	F	Positive Feedback IR Comp
POSFEEDRESISTANCE	QUANT	0	Positive Feedback Resistance (ohm)
ACHSELECT	IQUANT	0	Ach Select
CABLEID	IQUANT	14	Cable ID
DCCALDATE	LABEL	2/27/2020	DC Calibration Date
ACCALDATE	LABEL	2/27/2020	AC Calibration Date
THERMOSELECT	IQUANT	1	Thermo Select
FRAMEWORKVERSION	QUANT	6.33	Framework Version
INSTRUMENTVERSION	LABEL	3.50	Instrument Version
ZCURVE	TABLE
	Pt	Time	Freq	Zreal	Zimag	Zsig	Zmod	Zphz	Idc	Vdc	IERange
	#	s	Hz	ohm	ohm	V	ohm	°	A	V	#
	0	1	1000078	1904.126	-1733.504	1	2575.021	-42.31453	2.863228E-008	0.0676789	8
	1	1	794390.6	2257.063	-1788.351	1	2879.675	-38.39104	8.781617E-008	0.0673212	8
	2	2	630984.4	2616.115	-1783.709	1	3166.334	-34.2868	6.609613E-008	0.0671442	8
	3	2	501234.4	2959.943	-1731.773	1	3429.33	-30.33061	2.299856E-008	0.0670326	8
	4	2	398109.4	3277.136	-1631.404	1	3660.752	-26.46476	4.255702E-008	0.0669822	8
	5	3	316265.6	3551.524	-1504.491	1	3857.048	-22.95841	5.032025E-008	0.0669541	8
	6	3	251203.1	3781.276	-1369.964	1	4021.797	-19.91556	2.920041E-008	0.0669442	8
	7	3	199546.9	3968.476	-1227.584	1	4154.006	-17.18861	5.434479E-008	0.0669329	8
	8	4	158578.1	4122.163	-1097.771	1	4265.833	-14.91231	4.377983E-008	0.0669382	8
	9	4	125953.1	4282.297	-922.2205	1	4380.475	-12.1534	3.895559E-009	0.0668822	7
	10	4	100078.1	4368.179	-833.1912	1	4446.931	-10.79894	2.340336E-009	0.0668709	7
	11	5	79453.13	4453.411	-769.824	1	4519.458	-9.80733	2.67161E-009	0.0668644	7
	12	5	63140.62	4529.077	-720.2428	1	4585.988	-9.035877	1.896535E-009	0.0668504	7
	13	5	50203.12	4598.588	-685.6375	1	4649.421	-8.480181	2.041881E-009	0.0668516	7
	14	6	39890.62	4664.231	-665.9971	1	4711.54	-8.126229	2.00439E-009	0.0668577	7
	15	6	31640.63	4726.909	-659.6158	1	4772.71	-7.944031	1.799691E-009	0.0668541	7
	16	6	25171.88	4788.015	-667.906	1	4834.375	-7.941252	2.193504E-009	0.066848	7
	17	7	20015.62	4850.357	-691.3134	1	4899.375	-8.11164	2.715425E-009	0.0668415	7
	18	7	15890.62	4914.746	-730.1702	1	4968.689	-8.450464	2.823266E-009	0.0668485	7
	19	7	12609.37	4981.567	-785.3326	1	5043.09	-8.958817	2.09506E-009	0.0668433	7
	20	8	10078.13	5050.552	-856.3518	1	5122.637	-9.62332	1.760627E-009	0.0668411	7
	21	8	8015.625	5124.706	-948.6006	1	5211.761	-10.48695	1.860673E-009	0.0668472	7
	22	8	6328.125	5207.856	-1069.388	1	5316.517	-11.60389	1.963838E-009	0.0668452	7
	23	8	5015.625	5296.037	-1215.863	1	5433.813	-12.9299	2.520208E-009	0.0668313	7
	24	9	3984.375	5391.632	-1395.068	1	5569.193	-14.50695	3.761007E-009	0.0668372	7
	25	9	3170.956	5495.481	-1612.234	1	5727.095	-16.35034	3.38751E-009	0.0668476	7
	26	9	2527.573	5608.934	-1874.241	1	5913.791	-18.4772	2.510827E-009	0.0668393	7
	27	10	1976.103	5747.261	-2223.585	1	6162.413	-21.15119	2.074628E-009	0.0668315	7
	28	10	1577.524	5891.949	-2619.498	1	6448.01	-23.96943	4.118657E-009	0.0668408	7
	29	10	1265.625	6051.818	-3087.815	1	6794.049	-27.03201	4.778432E-009	0.066843	7
	30	11	998.264	6251.74	-3699.08	1	7264.121	-30.6123	2.75721E-009	0.0668323	7
	31	11	796.875	6474.932	-4406.883	1	7832.328	-34.23947	3.544357E-009	0.0668372	7
	32	11	627.7902	6760.676	-5330.857	1	8609.575	-38.25611	4.877809E-009	0.0668434	7
	33	12	505.5147	7068.571	-6342.992	1	9497.275	-41.90326	3.872367E-009	0.066836	7
	34	12	397.9953	7494.057	-7690.896	1	10738.29	-45.74267	6.066713E-010	0.0669086	6
	35	12	315.5048	7999.069	-9287.634	1	12257.46	-49.26299	5.50604E-010	0.0669081	6
	36	13	252.4038	8598.196	-11130.11	1	14064.44	-52.31332	5.499052E-010	0.0669027	6
	37	13	198.6229	9393.082	-13503.6	1	16449.23	-55.17758	6.221823E-010	0.0669012	6
	38	13	158.3615	10316.46	-16191.28	1	19198.61	-57.49628	5.903937E-010	0.066901	6
	39	14	125.558	11464.24	-19476.06	1	22599.69	-59.51756	5.350912E-010	0.0669019	6
	40	14	100.4464	12788.15	-23240.82	1	26526.82	-61.17842	4.582646E-010	0.0669037	6
	41	14	79.00281	14509.53	-28108.39	1	31632.39	-62.69725	2.693688E-010	0.0668972	6
	42	15	63.3446	16413.48	-33489.84	1	37295.73	-63.89037	2.924419E-010	0.066897	6
	43	15	49.86702	18943.72	-40518.61	1	44728.31	-64.94244	6.001312E-010	0.0668974	6
	44	15	39.72458	21938.34	-48586.9	1	53310.2	-65.69949	3.518468E-010	0.0668956	6
	45	16	31.6723	25688.78	-58220.75	1	63636.23	-66.19145	2.655876E-010	0.0668976	6
	46	16	24.93351	30790.39	-70388.53	1	76828.34	-66.37376	6.121048E-011	0.0668955	6
	47	16	19.86229	36953.47	-84129.06	1	91887.2	-66.28664	-1.161009E-009	0.066895	6
	48	17	15.83615	44996.23	-100089	1	109738.2	-65.79313	1.179393E-009	0.0669008	5
	49	17	12.40079	56235.94	-120068	1	132585.1	-64.90314	-5.830989E-010	0.0669038	5
	50	17	9.93114	69055.34	-140708.6	1	156740.4	-63.85965	-7.527157E-010	0.0668951	5
	51	18	7.944915	85163.08	-163679	1	184509	-62.5118	1.111776E-009	0.0668989	5
	52	18	6.317385	105161.3	-189980.3	1	217143.7	-61.0338	-2.291359E-010	0.0669071	5
	53	19	5.008013	129275.8	-218822.7	1	254156.7	-59.42631	-5.578994E-010	0.0668895	5
	54	20	3.945707	158534.2	-250300.3	1	296282.5	-57.65081	-1.68571E-011	0.0669013	5
	55	21	3.158693	188674.5	-282164.4	1	339433	-56.23059	-2.809958E-010	0.0668853	5
	56	22	2.504006	223835	-317491.9	1	388462.7	-54.81577	1.819613E-010	0.066883	5
	57	23	1.998082	259436.7	-355835.4	1	440370.6	-53.90451	2.107008E-010	0.0669001	5
	58	24	1.584686	299696.7	-399127.1	1	499119.8	-53.09784	-1.258399E-012	0.0668545	5
	59	26	1.266892	341145.7	-449556.2	1	564341.4	-52.80696	-3.884713E-011	0.0668416	5
	60	29	0.999041	387401.8	-512514.3	1	642457.1	-52.91492	-5.203165E-011	0.0668592	5
