EXPLAIN
TAG	EISPOT
TITLE	LABEL	Potentiostatic EIS	Test &Identifier
DATE	LABEL	3/17/2020	Date
TIME	LABEL	15:37:12	Time
NOTES	NOTES	1	&Notes...
	
PSTAT	PSTAT	REF600-11020	Potentiostat
VDC	POTEN	0.00000E+000	T	DC &Voltage (V)
FREQINIT	QUANT	1.00000E+006	Initial Fre&q. (Hz)
FREQFINAL	QUANT	1.00000E+000	Final Fre&q. (Hz)
PTSPERDEC	QUANT	1.00000E+001	Points/&decade
VAC	QUANT	2.50000E+001	AC &Voltage (mV rms)
AREA	QUANT	4.00000E-004	&Area (cm^2)
CONDIT	TWOPARAM	F	5.00000E+000	0.00000E+000	Conditionin&g	Time(s)	E(V)
DELAY	TWOPARAM	T	3.00000E+000	0.00000E+000	Init. De&lay	Time(s)	Stab.(mV/s)
SPEED	SELECTOR	0	&Optimize for:
ZGUESS	QUANT	5.00000E+003	E&stimated Z (ohms)
OCVCURVE	TABLE	12
	Pt	T	Vf	Vm	Ach	Over
	#	s	V vs. Ref.	V	V	bits
	0	0.258333	1.81836E-002	1.81836E-002	5.92430E-004	...........
	1	0.516667	1.81836E-002	1.81838E-002	5.93096E-004	...........
	2	0.775	1.81836E-002	1.81829E-002	5.97563E-004	...........
	3	1.03333	1.81836E-002	1.81848E-002	5.98530E-004	...........
	4	1.29167	1.81837E-002	1.81864E-002	5.94463E-004	...........
	5	1.55	1.81841E-002	1.81867E-002	5.93396E-004	...........
	6	1.80833	1.81847E-002	1.81840E-002	5.96830E-004	...........
	7	2.06667	1.81853E-002	1.81828E-002	6.00796E-004	...........
	8	2.325	1.81852E-002	1.81817E-002	5.91963E-004	...........
	9	2.58333	1.81844E-002	1.81823E-002	5.92730E-004	...........
	10	2.84167	1.81834E-002	1.81815E-002	5.96130E-004	...........
	11	3.1	1.81825E-002	1.81774E-002	5.97730E-004	...........
EOC	QUANT	0.0181825	Open Circuit (V)
PSTATMODEL	IQUANT	4	Pstat Model
PSTATSECTION	LABEL	REF600-11020	Pstat Section
PSTATSERIALNO	LABEL	11020	Pstat Serial Number
CTRLMODE	IQUANT	1	Control Mode
IESTAB	IQUANT	0	I/E Stability
CASPEED	IQUANT	1	Control Amp Speed
CONVENTION	IQUANT	1	Current Convention
ICHRANGE	IQUANT	2	Ich Range
ICHRANGEMODE	TOGGLE	F	Ich Auto Range
ICHOFFSETENABLE	TOGGLE	T	Ich Offset Enable
ICHOFFSET	QUANT	0	Ich Offset (V)
ICHFILTER	IQUANT	3	Ich Filter
VCHRANGE	IQUANT	2	Vch Range
VCHRANGEMODE	TOGGLE	F	Vch Auto Range
VCHOFFSETENABLE	TOGGLE	T	Vch Offset Enable
VCHOFFSET	QUANT	0	Vch Offset (V)
VCHFILTER	IQUANT	3	Vch Filter
ACHRANGE	IQUANT	2	Ach Range
ACHOFFSETENABLE	TOGGLE	F	Ach Offset Enable
ACHOFFSET	QUANT	0	Ach Offset (V)
ACHFILTER	IQUANT	3	Ach Filter
IERANGELOWERLIMIT	IQUANT	1	I/E Range Lower Limit
IERANGEMODE	TOGGLE	F	I/E AutoRange
IERANGE	IQUANT	6	I/E Range
POSFEEDENABLE	TOGGLE	F	Positive Feedback IR Comp
POSFEEDRESISTANCE	QUANT	0	Positive Feedback Resistance (ohm)
ACHSELECT	IQUANT	0	Ach Select
CABLEID	IQUANT	14	Cable ID
DCCALDATE	LABEL	2/27/2020	DC Calibration Date
ACCALDATE	LABEL	2/27/2020	AC Calibration Date
THERMOSELECT	IQUANT	1	Thermo Select
FRAMEWORKVERSION	QUANT	6.33	Framework Version
INSTRUMENTVERSION	LABEL	3.50	Instrument Version
ZCURVE	TABLE
	Pt	Time	Freq	Zreal	Zimag	Zsig	Zmod	Zphz	Idc	Vdc	IERange
	#	s	Hz	ohm	ohm	V	ohm	°	A	V	#
	0	1	1000078	2148.037	-2050.345	1	2969.508	-43.66703	4.425369E-008	0.0207901	8
	1	2	794390.6	2587.947	-2111.601	1	3340.109	-39.21227	3.219193E-008	0.0204022	8
	2	2	630984.4	3045.198	-2092.502	1	3694.834	-34.49483	4.991152E-008	0.020208	8
	3	2	501234.4	3458.07	-2003.294	1	3996.428	-30.08414	4.385321E-008	0.0200777	8
	4	3	398109.4	3824.616	-1861.194	1	4253.438	-25.94919	4.220294E-008	0.0200139	8
	5	3	316265.6	4136.376	-1681.478	1	4465.084	-22.12223	8.094241E-008	0.0199458	8
	6	3	251203.1	4384.749	-1494.404	1	4632.415	-18.82006	3.184372E-008	0.0199561	8
	7	3	199546.9	4583.518	-1312.534	1	4767.744	-15.97957	4.607959E-008	0.0199482	8
	8	4	158578.1	4735.781	-1147.557	1	4872.833	-13.62115	1.335906E-008	0.0199767	8
	9	4	125953.1	4894.517	-926.9099	1	4981.511	-10.72352	-1.686207E-010	0.0198884	7
	10	4	100078.1	4967.84	-815.298	1	5034.297	-9.320026	1.88535E-010	0.0198705	7
	11	5	79453.13	5041.184	-732.1772	1	5094.077	-8.263806	-2.755939E-010	0.0198682	7
	12	5	63140.62	5103.914	-667.7898	1	5147.415	-7.454166	1.643428E-009	0.0198697	7
	13	5	50203.12	5158.623	-620.3531	1	5195.79	-6.857208	1.002724E-009	0.019858	7
	14	6	39890.62	5208.944	-589.9807	1	5242.25	-6.461954	9.074119E-010	0.0198529	7
	15	6	31640.63	5256.849	-576.0179	1	5288.313	-6.253224	7.606971E-011	0.0198514	7
	16	6	25171.88	5302.509	-579.4171	1	5334.072	-6.236096	1.695051E-009	0.0198634	7
	17	7	20015.62	5349.896	-594.8072	1	5382.86	-6.344151	1.191889E-009	0.0198594	7
	18	7	15890.62	5398.833	-625.8917	1	5434.992	-6.612833	1.790403E-009	0.0198578	7
	19	7	12609.37	5449.661	-672.8109	1	5491.036	-7.038078	9.54361E-010	0.0198483	7
	20	8	10078.13	5502.135	-735.0674	1	5551.019	-7.609473	6.918309E-010	0.0198473	7
	21	8	8015.625	5558.199	-818.1067	1	5618.084	-8.373197	1.07626E-009	0.0198464	7
	22	8	6328.125	5619.667	-928.3906	1	5695.838	-9.380754	2.317049E-009	0.0198578	7
	23	9	5015.625	5684.507	-1064.737	1	5783.363	-10.60886	1.423176E-009	0.0198515	7
	24	9	3984.375	5753.687	-1234.377	1	5884.606	-12.1085	1.038752E-009	0.0198492	7
	25	9	3170.956	5828.531	-1443.847	1	6004.704	-13.91326	2.079516E-009	0.0198488	7
	26	10	2527.573	5908.195	-1700.681	1	6148.096	-16.05853	2.282452E-009	0.0198565	7
	27	10	1976.103	6006.51	-2049.813	1	6346.644	-18.84299	2.397925E-009	0.0198521	7
	28	10	1577.524	6110.827	-2444.915	1	6581.779	-21.80613	2.159014E-009	0.0198447	7
	29	10	1265.625	6229.812	-2918.526	1	6879.56	-25.10203	1.695799E-009	0.0198474	7
	30	11	998.264	6378.97	-3542.79	1	7296.754	-29.04718	2.170846E-009	0.0198441	7
	31	11	796.875	6549.137	-4277.688	1	7822.391	-33.15129	1.747071E-009	0.0198441	7
	32	11	627.7902	6766.629	-5233.328	1	8554.238	-37.71846	1.872017E-009	0.0198397	7
	33	12	505.5147	7005.481	-6284.185	1	9411.044	-41.89332	1.419691E-009	0.0198385	7
	34	12	397.9953	7332.039	-7711.34	1	10640.66	-46.44434	6.175999E-010	0.0199053	6
	35	12	315.5048	7720.315	-9414.292	1	12175.06	-50.64608	5.923279E-010	0.0199042	6
	36	13	252.4038	8180.374	-11407.6	1	14037.52	-54.35575	4.959869E-010	0.0199122	6
	37	13	198.6229	8796.967	-14022.47	1	16553.44	-57.89798	4.567246E-010	0.0199053	6
	38	13	158.3615	9527.06	-17042.56	1	19524.7	-60.79412	5.100302E-010	0.0199016	6
	39	14	125.558	10465.47	-20805.76	1	23289.6	-63.29722	4.243165E-010	0.0199066	6
	40	14	100.4464	11599.95	-25192.47	1	27734.8	-65.27615	3.573639E-010	0.0199048	6
	41	14	79.00281	13144.61	-30932.74	1	33609.75	-66.97734	4.016701E-010	0.0199015	6
	42	15	63.3446	14943.31	-37324.23	1	40204.48	-68.18056	3.74012E-010	0.019901	6
	43	15	49.86702	17417.73	-45706.17	1	48912.48	-69.13913	1.996857E-010	0.0198991	6
	44	15	39.72458	20424.26	-55325.98	1	58975.54	-69.73776	2.942192E-010	0.0199026	6
	45	16	31.6723	24231.53	-66827.56	1	71085.09	-70.06947	7.522129E-011	0.0198944	6
	46	16	24.93351	29424.32	-81431.04	1	86584.09	-70.13316	1.975413E-010	0.0198938	6
	47	16	19.86229	35782.61	-98113.2	1	104434.7	-69.96272	-4.599799E-010	0.019896	6
	48	17	15.83615	44011.33	-117573	1	125540.5	-69.47752	9.621969E-010	0.0199016	5
	49	17	12.40079	55503.78	-142452.1	1	152883.2	-68.71255	3.695914E-010	0.0199022	5
	50	17	9.93114	68938.46	-168757.3	1	182295.2	-67.77966	6.91791E-010	0.0198994	5
	51	18	7.944915	85530.48	-198891.3	1	216502.2	-66.73054	8.652043E-010	0.019901	5
	52	18	6.317385	107085.7	-234298.7	1	257610.6	-65.43733	-9.716665E-011	0.0199176	5
	53	19	5.008013	133938.5	-274659.6	1	305577.1	-64.0037	2.289465E-011	0.019907	5
	54	20	3.945707	166774	-320801.5	1	361562.2	-62.53158	3.66978E-010	0.0198986	5
	55	21	3.158693	203418.1	-368325.7	1	420764.5	-61.0891	2.955668E-011	0.019918	5
	56	22	2.504006	247197.5	-423812.7	1	490636.1	-59.74624	-1.027666E-010	0.0199051	5
	57	23	1.998082	295882.1	-482063.9	1	565625.2	-58.45916	1.40975E-010	0.0199358	5
	58	24	1.584686	352198	-551365	1	654252.9	-57.43059	1.686278E-010	0.0199433	5
	59	26	1.266892	412267.4	-624517.7	1	748322.6	-56.56971	1.119021E-010	0.0199105	5
	60	29	0.999041	485763.7	-712128.1	1	862028.3	-55.70094	7.81398E-011	0.0198798	5
