EXPLAIN
TAG	EISPOT
TITLE	LABEL	Potentiostatic EIS	Test &Identifier
DATE	LABEL	6/1/2020	Date
TIME	LABEL	13:45:14	Time
NOTES	NOTES	1	&Notes...
	
PSTAT	PSTAT	REF600-11020	Potentiostat
VDC	POTEN	0.00000E+000	T	DC &Voltage (V)
FREQINIT	QUANT	1.00000E+006	Initial Fre&q. (Hz)
FREQFINAL	QUANT	1.00000E+000	Final Fre&q. (Hz)
PTSPERDEC	QUANT	1.00000E+001	Points/&decade
VAC	QUANT	2.50000E+001	AC &Voltage (mV rms)
AREA	QUANT	4.00000E-004	&Area (cm^2)
CONDIT	TWOPARAM	F	5.00000E+000	0.00000E+000	Conditionin&g	Time(s)	E(V)
DELAY	TWOPARAM	T	3.00000E+000	0.00000E+000	Init. De&lay	Time(s)	Stab.(mV/s)
SPEED	SELECTOR	0	&Optimize for:
ZGUESS	QUANT	1.00000E+003	E&stimated Z (ohms)
OCVCURVE	TABLE	12
	Pt	T	Vf	Vm	Ach	Over
	#	s	V vs. Ref.	V	V	bits
	0	0.258333	9.38895E-002	9.38895E-002	5.66630E-004	...........
	1	0.516667	9.38895E-002	9.38871E-002	5.68963E-004	...........
	2	0.775	9.38893E-002	9.38900E-002	5.69397E-004	...........
	3	1.03333	9.38890E-002	9.38879E-002	5.65497E-004	...........
	4	1.29167	9.38887E-002	9.38835E-002	5.73797E-004	...........
	5	1.55	9.38881E-002	9.38879E-002	5.67030E-004	...........
	6	1.80833	9.38874E-002	9.38890E-002	5.71397E-004	...........
	7	2.06667	9.38870E-002	9.38868E-002	5.69830E-004	...........
	8	2.325	9.38871E-002	9.38864E-002	5.65864E-004	...........
	9	2.58333	9.38872E-002	9.38853E-002	5.66997E-004	...........
	10	2.84167	9.38870E-002	9.38831E-002	5.69397E-004	...........
	11	3.1	9.38861E-002	9.38802E-002	5.73197E-004	...........
EOC	QUANT	0.0938861	Open Circuit (V)
PSTATMODEL	IQUANT	4	Pstat Model
PSTATSECTION	LABEL	REF600-11020	Pstat Section
PSTATSERIALNO	LABEL	11020	Pstat Serial Number
CTRLMODE	IQUANT	1	Control Mode
IESTAB	IQUANT	0	I/E Stability
CASPEED	IQUANT	1	Control Amp Speed
CONVENTION	IQUANT	1	Current Convention
ICHRANGE	IQUANT	2	Ich Range
ICHRANGEMODE	TOGGLE	F	Ich Auto Range
ICHOFFSETENABLE	TOGGLE	T	Ich Offset Enable
ICHOFFSET	QUANT	0	Ich Offset (V)
ICHFILTER	IQUANT	3	Ich Filter
VCHRANGE	IQUANT	2	Vch Range
VCHRANGEMODE	TOGGLE	F	Vch Auto Range
VCHOFFSETENABLE	TOGGLE	T	Vch Offset Enable
VCHOFFSET	QUANT	0	Vch Offset (V)
VCHFILTER	IQUANT	3	Vch Filter
ACHRANGE	IQUANT	2	Ach Range
ACHOFFSETENABLE	TOGGLE	F	Ach Offset Enable
ACHOFFSET	QUANT	0	Ach Offset (V)
ACHFILTER	IQUANT	3	Ach Filter
IERANGELOWERLIMIT	IQUANT	1	I/E Range Lower Limit
IERANGEMODE	TOGGLE	F	I/E AutoRange
IERANGE	IQUANT	8	I/E Range
POSFEEDENABLE	TOGGLE	F	Positive Feedback IR Comp
POSFEEDRESISTANCE	QUANT	0	Positive Feedback Resistance (ohm)
ACHSELECT	IQUANT	0	Ach Select
CABLEID	IQUANT	14	Cable ID
DCCALDATE	LABEL	2/27/2020	DC Calibration Date
ACCALDATE	LABEL	2/27/2020	AC Calibration Date
THERMOSELECT	IQUANT	1	Thermo Select
FRAMEWORKVERSION	QUANT	6.33	Framework Version
INSTRUMENTVERSION	LABEL	3.50	Instrument Version
ZCURVE	TABLE
	Pt	Time	Freq	Zreal	Zimag	Zsig	Zmod	Zphz	Idc	Vdc	IERange
	#	s	Hz	ohm	ohm	V	ohm	°	A	V	#
	0	1	1000078	2045.725	-2230.873	1	3026.844	-47.47898	6.501124E-008	0.096375	8
	1	1	794390.6	2509.143	-2363.479	1	3447.003	-43.28769	2.749852E-008	0.0960155	8
	2	2	630984.4	3007.185	-2411.182	1	3854.473	-38.72289	4.759159E-008	0.0958646	8
	3	2	501234.4	3501.72	-2374.306	1	4230.765	-34.13883	4.748621E-008	0.0957657	8
	4	2	398109.4	3962.354	-2262.922	1	4563.01	-29.73092	2.083967E-008	0.0956986	8
	5	3	316265.6	4364.286	-2086.041	1	4837.206	-25.54686	5.169884E-008	0.0956881	8
	6	3	251203.1	4704.439	-1889.263	1	5069.622	-21.87998	4.241194E-008	0.0956658	8
	7	3	199546.9	4975.352	-1684.115	1	5252.653	-18.70053	4.428649E-008	0.0956655	8
	8	3	158578.1	5184.762	-1491.481	1	5395.023	-16.04874	7.75829E-008	0.0956383	8
	9	4	125953.1	5390.961	-1253.745	1	5534.83	-13.09223	4.386431E-009	0.0956093	7
	10	4	100078.1	5502.828	-1116.072	1	5614.867	-11.4651	1.557576E-009	0.0956019	7
	11	4	79453.13	5608.828	-1013.106	1	5699.591	-10.23876	8.543311E-010	0.095588	7
	12	5	63140.62	5700.338	-934.4669	1	5776.425	-9.309794	1.237202E-009	0.0955796	7
	13	5	50203.12	5780.484	-879.6185	1	5847.027	-8.652345	1.070001E-009	0.0955842	7
	14	5	39890.62	5853.739	-847.5637	1	5914.78	-8.23861	2.076403E-009	0.0955871	7
	15	6	31640.63	5923.322	-838.8799	1	5982.429	-8.060805	1.932412E-009	0.095584	7
	16	6	25171.88	5992.706	-851.7531	1	6052.934	-8.089361	2.667507E-009	0.0955807	7
	17	6	20015.62	6062.868	-887.2859	1	6127.45	-8.325993	3.557643E-009	0.0955862	7
	18	7	15890.62	6135.534	-946.2668	1	6208.075	-8.767494	3.087862E-009	0.0955752	7
	19	7	12609.37	6213.28	-1030.06	1	6298.084	-9.413092	1.588761E-009	0.0955722	7
	20	7	10078.13	6293.834	-1138.648	1	6396.004	-10.25474	2.07323E-009	0.0955728	7
	21	8	8015.625	6384.635	-1281.302	1	6511.935	-11.34768	2.62782E-009	0.0955684	7
	22	8	6328.125	6487.396	-1465.29	1	6650.818	-12.72766	1.969138E-009	0.0955672	7
	23	8	5015.625	6600.65	-1688.969	1	6813.31	-14.35284	2.169777E-009	0.0955685	7
	24	9	3984.375	6727.739	-1961.263	1	7007.783	-16.2524	2.20463E-009	0.0955714	7
	25	9	3170.956	6872.033	-2292.14	1	7244.221	-18.44592	4.147397E-009	0.0955805	7
	26	9	2527.573	7035.647	-2685.974	1	7530.922	-20.89518	1.325765E-009	0.0955585	7
	27	10	1976.103	7240.604	-3208.43	1	7919.619	-23.89892	3.241661E-009	0.0955712	7
	28	10	1577.524	7460.191	-3786.196	1	8365.986	-26.9087	2.178226E-009	0.0955609	7
	29	10	1265.625	7705.883	-4466.279	1	8906.643	-30.0963	2.360125E-009	0.0955596	7
	30	10	998.264	8024.092	-5339.75	1	9638.41	-33.64237	-3.233544E-010	0.0956113	6
	31	11	796.875	8364.436	-6350.4	1	10501.97	-37.20629	-3.250631E-010	0.0956172	6
	32	11	627.7902	8789.591	-7645.053	1	11649.2	-41.01625	-1.327184E-010	0.0956225	6
	33	11	505.5147	9246.399	-9061.748	1	12946.47	-44.42215	-1.096273E-011	0.0956145	6
	34	12	397.9953	9827.39	-10949.79	1	14713.11	-48.09216	5.157976E-010	0.0956333	6
	35	12	315.5048	10500.66	-13180.65	1	16852.1	-51.45662	5.527542E-010	0.0956319	6
	36	12	252.4038	11265.44	-15774.29	1	19383.97	-54.46692	5.651442E-010	0.0956255	6
	37	13	198.6229	12243.85	-19157.97	1	22736.31	-57.41736	5.026438E-010	0.0956273	6
	38	13	158.3615	13356.36	-23052.05	1	26641.88	-59.91199	4.540218E-010	0.0956329	6
	39	13	125.558	14736.13	-27899.64	1	31552.24	-62.15773	4.979553E-010	0.0956297	6
	40	14	100.4464	16355.38	-33549.27	1	37323.61	-64.01061	5.393044E-010	0.0956267	6
	41	14	79.00281	18506.68	-40944.14	1	44932.39	-65.67712	5.105354E-010	0.0956258	6
	42	14	63.3446	20973.03	-49187.23	1	53471.97	-66.907	4.743247E-010	0.0956272	6
	43	15	49.86702	24332.01	-59994.49	1	64740.91	-67.92397	3.211758E-010	0.095622	6
	44	15	39.72458	28383.99	-72400.48	1	77765.55	-68.59277	4.524608E-010	0.095629	6
	45	15	31.6723	33486.92	-87229.59	1	93436.48	-68.9985	2.427421E-010	0.0956243	6
	46	16	24.93351	40430.33	-105947.7	1	113399.9	-69.11282	2.103734E-010	0.0956271	5
	47	16	19.86229	48760.34	-127322.5	1	136340	-69.0448	-1.526145E-010	0.0956261	5
	48	16	15.83615	59427.96	-152468	1	163640.4	-68.70549	6.781966E-010	0.095627	5
	49	17	12.40079	74238.85	-184644.3	1	199009.8	-68.0967	7.41637E-010	0.095631	5
	50	17	9.93114	91510.68	-218709.5	1	237082.3	-67.29498	8.766028E-010	0.0956313	5
	51	17	7.944915	113346.1	-258737	1	282475.1	-66.343	2.54025E-010	0.0956267	5
	52	18	6.317385	141908.9	-305417.6	1	336776	-65.07858	1.452646E-010	0.0956318	5
	53	18	5.008013	178686	-358717.5	1	400758	-63.52098	3.338876E-010	0.0956371	5
	54	19	3.945707	226079.3	-419599.2	1	476629.1	-61.6843	2.877213E-010	0.0956251	5
	55	20	3.158693	279243.8	-480578.2	1	555816.9	-59.84093	2.397879E-010	0.0956465	5
	56	21	2.504006	346005	-548520.8	1	648532.6	-57.75642	-3.4864E-013	0.0956321	5
	57	23	1.998082	418601.1	-616378.9	1	745083.8	-55.81842	6.300738E-011	0.0956288	5
	58	24	1.584686	505784.7	-689307.7	1	854963.9	-53.73036	1.681801E-010	0.0956676	5
	59	26	1.266892	596267.6	-765264.6	1	970137	-52.07552	1.766356E-010	0.0956577	5
	60	29	0.999041	700538.7	-850311.5	1	1101719	-50.51621	1.396667E-010	0.0956322	4
