EXPLAIN
TAG	EISPOT
TITLE	LABEL	Potentiostatic EIS	Test &Identifier
DATE	LABEL	3/17/2020	Date
TIME	LABEL	15:43:01	Time
NOTES	NOTES	1	&Notes...
	
PSTAT	PSTAT	REF600-11020	Potentiostat
VDC	POTEN	0.00000E+000	T	DC &Voltage (V)
FREQINIT	QUANT	1.00000E+006	Initial Fre&q. (Hz)
FREQFINAL	QUANT	1.00000E+000	Final Fre&q. (Hz)
PTSPERDEC	QUANT	1.00000E+001	Points/&decade
VAC	QUANT	2.50000E+001	AC &Voltage (mV rms)
AREA	QUANT	4.00000E-004	&Area (cm^2)
CONDIT	TWOPARAM	F	5.00000E+000	0.00000E+000	Conditionin&g	Time(s)	E(V)
DELAY	TWOPARAM	T	3.00000E+000	0.00000E+000	Init. De&lay	Time(s)	Stab.(mV/s)
SPEED	SELECTOR	0	&Optimize for:
ZGUESS	QUANT	5.00000E+003	E&stimated Z (ohms)
OCVCURVE	TABLE	12
	Pt	T	Vf	Vm	Ach	Over
	#	s	V vs. Ref.	V	V	bits
	0	0.258333	6.28254E-002	6.28254E-002	5.82263E-004	...........
	1	0.516667	6.28255E-002	6.28297E-002	5.79830E-004	...........
	2	0.775	6.28259E-002	6.28301E-002	5.82463E-004	...........
	3	1.03333	6.28270E-002	6.28337E-002	5.81363E-004	...........
	4	1.29167	6.28287E-002	6.28357E-002	5.77863E-004	...........
	5	1.55	6.28308E-002	6.28394E-002	5.79397E-004	...........
	6	1.80833	6.28332E-002	6.28386E-002	5.79397E-004	...........
	7	2.06667	6.28356E-002	6.28422E-002	5.79497E-004	...........
	8	2.325	6.28377E-002	6.28428E-002	5.73997E-004	...........
	9	2.58333	6.28397E-002	6.28474E-002	5.76997E-004	...........
	10	2.84167	6.28417E-002	6.28502E-002	5.77230E-004	...........
	11	3.1	6.28440E-002	6.28510E-002	5.78563E-004	...........
EOC	QUANT	0.062844	Open Circuit (V)
PSTATMODEL	IQUANT	4	Pstat Model
PSTATSECTION	LABEL	REF600-11020	Pstat Section
PSTATSERIALNO	LABEL	11020	Pstat Serial Number
CTRLMODE	IQUANT	1	Control Mode
IESTAB	IQUANT	0	I/E Stability
CASPEED	IQUANT	1	Control Amp Speed
CONVENTION	IQUANT	1	Current Convention
ICHRANGE	IQUANT	2	Ich Range
ICHRANGEMODE	TOGGLE	F	Ich Auto Range
ICHOFFSETENABLE	TOGGLE	T	Ich Offset Enable
ICHOFFSET	QUANT	0	Ich Offset (V)
ICHFILTER	IQUANT	3	Ich Filter
VCHRANGE	IQUANT	2	Vch Range
VCHRANGEMODE	TOGGLE	F	Vch Auto Range
VCHOFFSETENABLE	TOGGLE	T	Vch Offset Enable
VCHOFFSET	QUANT	0	Vch Offset (V)
VCHFILTER	IQUANT	3	Vch Filter
ACHRANGE	IQUANT	2	Ach Range
ACHOFFSETENABLE	TOGGLE	F	Ach Offset Enable
ACHOFFSET	QUANT	0	Ach Offset (V)
ACHFILTER	IQUANT	3	Ach Filter
IERANGELOWERLIMIT	IQUANT	1	I/E Range Lower Limit
IERANGEMODE	TOGGLE	F	I/E AutoRange
IERANGE	IQUANT	7	I/E Range
POSFEEDENABLE	TOGGLE	F	Positive Feedback IR Comp
POSFEEDRESISTANCE	QUANT	0	Positive Feedback Resistance (ohm)
ACHSELECT	IQUANT	0	Ach Select
CABLEID	IQUANT	14	Cable ID
DCCALDATE	LABEL	2/27/2020	DC Calibration Date
ACCALDATE	LABEL	2/27/2020	AC Calibration Date
THERMOSELECT	IQUANT	1	Thermo Select
FRAMEWORKVERSION	QUANT	6.33	Framework Version
INSTRUMENTVERSION	LABEL	3.50	Instrument Version
ZCURVE	TABLE
	Pt	Time	Freq	Zreal	Zimag	Zsig	Zmod	Zphz	Idc	Vdc	IERange
	#	s	Hz	ohm	ohm	V	ohm	°	A	V	#
	0	2	1000078	1714.912	-1267.968	1	2132.76	-36.4784	1.049086E-008	0.0650805	8
	1	2	794390.6	1900.615	-1324.059	1	2316.348	-34.86292	4.470457E-008	0.0647514	8
	2	2	630984.4	2088.483	-1377.799	1	2502.018	-33.41335	1.723892E-008	0.0645944	8
	3	3	501234.4	2290.197	-1434.887	1	2702.573	-32.06856	3.540307E-008	0.0645138	8
	4	3	398109.4	2497.345	-1498.001	1	2912.171	-30.95691	3.819639E-008	0.0644466	8
	5	3	316265.6	2714.961	-1565.324	1	3133.888	-29.96581	1.088471E-008	0.0644582	8
	6	4	251203.1	2936.343	-1637.762	1	3362.198	-29.15085	1.048693E-008	0.0644435	8
	7	4	199546.9	3176.305	-1719.689	1	3611.958	-28.43164	4.451155E-008	0.0644394	8
	8	4	158578.1	3431.193	-1798.364	1	3873.913	-27.66003	7.068327E-008	0.0643883	8
	9	4	125953.1	3733.921	-1848.185	1	4166.288	-26.3341	-6.611249E-010	0.064356	7
	10	5	100078.1	4007.555	-1935.743	1	4450.573	-25.78163	6.307782E-010	0.0643565	7
	11	5	79453.13	4312.213	-2027.918	1	4765.252	-25.18634	6.510666E-010	0.0643472	7
	12	5	63140.62	4636.925	-2111.012	1	5094.845	-24.47793	-3.805078E-011	0.0643399	7
	13	6	50203.12	4984.966	-2182.672	1	5441.869	-23.64625	7.261933E-010	0.0643329	7
	14	6	39890.62	5355.991	-2237.121	1	5804.425	-22.6696	1.987311E-009	0.0643399	7
	15	6	31640.63	5741.54	-2261.64	1	6170.923	-21.49989	1.209064E-009	0.0643304	7
	16	7	25171.88	6124.778	-2254.28	1	6526.46	-20.20659	1.307958E-009	0.0643291	7
	17	7	20015.62	6502.665	-2218.666	1	6870.745	-18.8393	1.300301E-009	0.0643359	7
	18	7	15890.62	6867.746	-2153.53	1	7197.473	-17.40994	5.689457E-010	0.064325	7
	19	8	12609.37	7205.078	-2065.795	1	7495.376	-15.99832	1.645287E-010	0.0643249	7
	20	8	10078.13	7504.267	-1973.053	1	7759.314	-14.73104	1.110901E-009	0.0643304	7
	21	8	8015.625	7774.331	-1872.294	1	7996.606	-13.5407	1.494087E-009	0.0643338	7
	22	9	6328.125	8015.234	-1779.422	1	8210.379	-12.51694	1.307656E-009	0.06433	7
	23	9	5015.625	8234.123	-1711.425	1	8410.099	-11.74149	2.073524E-009	0.0643338	7
	24	9	3984.375	8412.156	-1664.988	1	8575.346	-11.19565	2.484991E-009	0.0643357	7
	25	10	3170.956	8567.63	-1649.803	1	8725.029	-10.8996	2.167609E-009	0.0643354	7
	26	10	2527.573	8710.76	-1654.519	1	8866.497	-10.75463	1.332951E-010	0.0643897	6
	27	10	1976.103	8847.09	-1735.676	1	9015.74	-11.09966	-1.089363E-010	0.0643898	6
	28	11	1577.524	8968.5	-1862.423	1	9159.837	-11.73146	-1.855086E-010	0.0643868	6
	29	11	1265.625	9090.034	-2042.6	1	9316.702	-12.66444	-1.984688E-010	0.0643851	6
	30	11	998.264	9217.941	-2304.509	1	9501.64	-14.03638	-2.426206E-010	0.0643782	6
	31	11	796.875	9351.494	-2635.995	1	9715.91	-15.74206	-4.191401E-010	0.0643742	6
	32	12	627.7902	9511.18	-3086.929	1	9999.59	-17.98125	-2.532236E-010	0.0643754	6
	33	12	505.5147	9677.81	-3601.558	1	10326.24	-20.41254	-4.708569E-010	0.064374	6
	34	12	397.9953	9877.44	-4308.375	1	10776.17	-23.56603	3.946611E-010	0.0643894	6
	35	13	315.5048	10121.71	-5161.23	1	11361.66	-27.01781	3.963777E-010	0.0643901	6
	36	13	252.4038	10401.11	-6166.613	1	12091.74	-30.66286	3.501106E-010	0.0643865	6
	37	13	198.6229	10776.55	-7492.103	1	13125	-34.80791	5.51279E-010	0.0643872	6
	38	14	158.3615	11217.4	-9026.137	1	14397.96	-38.82206	3.671467E-010	0.0643829	6
	39	14	125.558	11778.62	-10937.87	1	16073.99	-42.88042	4.722188E-010	0.0643812	6
	40	14	100.4464	12471.58	-13159.3	1	18130.29	-46.53696	5.886117E-010	0.064379	6
	41	15	79.00281	13436.07	-16051.17	1	20932.46	-50.06807	2.227171E-010	0.0643763	6
	42	15	63.3446	14569.51	-19244.58	1	24137.62	-52.8717	2.742977E-010	0.0643773	6
	43	15	49.86702	16160.74	-23371.42	1	28414.66	-55.33712	2.536144E-010	0.0643803	6
	44	16	39.72458	18116.58	-28028.35	1	33373.63	-57.12274	1.811394E-010	0.0643814	6
	45	16	31.6723	20601.34	-33467.43	1	39299.92	-58.38505	-2.717383E-010	0.0643781	6
	46	16	24.93351	23957.02	-40139.66	1	46745.39	-59.16949	1.129104E-009	0.0643769	6
	47	17	19.86229	27952.41	-47431.52	1	55055.3	-59.48825	1.65025E-009	0.0643818	6
	48	17	15.83615	32871.75	-55738.95	1	64709.98	-59.47024	3.344604E-010	0.0643734	6
	49	17	12.40079	39359.53	-65735.41	1	76618	-59.08864	2.253438E-009	0.064378	6
	50	18	9.93114	46247.79	-76081.52	1	89035.14	-58.70578	1.031538E-009	0.0643827	6
	51	18	7.944915	54261.46	-87437.9	1	102906.2	-58.17744	-1.855796E-009	0.0643877	5
	52	18	6.317385	63683.3	-100727.3	1	119170.2	-57.69749	8.880317E-010	0.0643703	5
	53	19	5.008013	74421.99	-116085.9	1	137893.3	-57.33631	9.081363E-010	0.0643785	5
	54	20	3.945707	86725.35	-133827.2	1	159471	-57.05516	-8.19305E-011	0.0643691	5
	55	21	3.158693	99392.5	-153316.7	1	182715.3	-57.04537	5.11467E-010	0.0643809	5
	56	22	2.504006	113893.9	-176699.3	1	210224.8	-57.19564	8.650428E-011	0.0643824	5
	57	23	1.998082	129429.5	-203864.8	1	241480.5	-57.58939	-1.251291E-010	0.0643397	5
	58	25	1.584686	146988.1	-236271.2	1	278261.8	-58.11359	1.054284E-010	0.0643826	5
	59	27	1.266892	167026.5	-274206.9	1	321072.1	-58.65332	1.696924E-010	0.0644011	5
	60	29	0.999041	190911.3	-322955.9	1	375163.5	-59.41108	1.872416E-010	0.0644085	5
