EXPLAIN
TAG	EISPOT
TITLE	LABEL	Potentiostatic EIS	Test &Identifier
DATE	LABEL	5/26/2020	Date
TIME	LABEL	18:23:00	Time
NOTES	NOTES	1	&Notes...
	
PSTAT	PSTAT	REF600-11020	Potentiostat
VDC	POTEN	0.00000E+000	T	DC &Voltage (V)
FREQINIT	QUANT	1.00000E+006	Initial Fre&q. (Hz)
FREQFINAL	QUANT	1.00000E+000	Final Fre&q. (Hz)
PTSPERDEC	QUANT	1.00000E+001	Points/&decade
VAC	QUANT	2.50000E+001	AC &Voltage (mV rms)
AREA	QUANT	5.00000E-004	&Area (cm^2)
CONDIT	TWOPARAM	F	5.00000E+000	0.00000E+000	Conditionin&g	Time(s)	E(V)
DELAY	TWOPARAM	T	3.00000E+000	0.00000E+000	Init. De&lay	Time(s)	Stab.(mV/s)
SPEED	SELECTOR	0	&Optimize for:
ZGUESS	QUANT	1.00000E+003	E&stimated Z (ohms)
OCVCURVE	TABLE	12
	Pt	T	Vf	Vm	Ach	Over
	#	s	V vs. Ref.	V	V	bits
	0	0.258333	9.77589E-002	9.77589E-002	5.86263E-004	...........
	1	0.516667	9.77584E-002	9.77357E-002	5.85863E-004	...........
	2	0.775	9.77557E-002	9.77115E-002	5.91463E-004	...........
	3	1.03333	9.77478E-002	9.76934E-002	5.86696E-004	...........
	4	1.29167	9.77339E-002	9.76757E-002	5.86763E-004	...........
	5	1.55	9.77160E-002	9.76611E-002	5.89296E-004	...........
	6	1.80833	9.76971E-002	9.76477E-002	5.92063E-004	...........
	7	2.06667	9.76794E-002	9.76360E-002	5.83730E-004	...........
	8	2.325	9.76637E-002	9.76272E-002	5.90063E-004	...........
	9	2.58333	9.76501E-002	9.76155E-002	5.88596E-004	...........
	10	2.84167	9.76382E-002	9.76088E-002	5.83530E-004	...........
	11	3.1	9.76276E-002	9.75999E-002	5.87663E-004	...........
EOC	QUANT	0.0976276	Open Circuit (V)
PSTATMODEL	IQUANT	4	Pstat Model
PSTATSECTION	LABEL	REF600-11020	Pstat Section
PSTATSERIALNO	LABEL	11020	Pstat Serial Number
CTRLMODE	IQUANT	1	Control Mode
IESTAB	IQUANT	0	I/E Stability
CASPEED	IQUANT	1	Control Amp Speed
CONVENTION	IQUANT	1	Current Convention
ICHRANGE	IQUANT	2	Ich Range
ICHRANGEMODE	TOGGLE	F	Ich Auto Range
ICHOFFSETENABLE	TOGGLE	T	Ich Offset Enable
ICHOFFSET	QUANT	0	Ich Offset (V)
ICHFILTER	IQUANT	3	Ich Filter
VCHRANGE	IQUANT	2	Vch Range
VCHRANGEMODE	TOGGLE	F	Vch Auto Range
VCHOFFSETENABLE	TOGGLE	T	Vch Offset Enable
VCHOFFSET	QUANT	0	Vch Offset (V)
VCHFILTER	IQUANT	3	Vch Filter
ACHRANGE	IQUANT	2	Ach Range
ACHOFFSETENABLE	TOGGLE	F	Ach Offset Enable
ACHOFFSET	QUANT	0	Ach Offset (V)
ACHFILTER	IQUANT	3	Ach Filter
IERANGELOWERLIMIT	IQUANT	1	I/E Range Lower Limit
IERANGEMODE	TOGGLE	F	I/E AutoRange
IERANGE	IQUANT	8	I/E Range
POSFEEDENABLE	TOGGLE	F	Positive Feedback IR Comp
POSFEEDRESISTANCE	QUANT	0	Positive Feedback Resistance (ohm)
ACHSELECT	IQUANT	0	Ach Select
CABLEID	IQUANT	14	Cable ID
DCCALDATE	LABEL	2/27/2020	DC Calibration Date
ACCALDATE	LABEL	2/27/2020	AC Calibration Date
THERMOSELECT	IQUANT	1	Thermo Select
FRAMEWORKVERSION	QUANT	6.33	Framework Version
INSTRUMENTVERSION	LABEL	3.50	Instrument Version
ZCURVE	TABLE
	Pt	Time	Freq	Zreal	Zimag	Zsig	Zmod	Zphz	Idc	Vdc	IERange
	#	s	Hz	ohm	ohm	V	ohm	°	A	V	#
	0	1	1000078	1770.245	-1232.346	1	2156.953	-34.84349	5.773114E-008	0.1003161	8
	1	2	794390.6	1985.284	-1247.471	1	2344.682	-32.14358	5.692037E-008	0.0999127	8
	2	2	630984.4	2195.854	-1245.242	1	2524.362	-29.55705	6.598486E-008	0.0997386	8
	3	2	501234.4	2397.623	-1232.739	1	2695.968	-27.20999	5.37423E-008	0.0996126	8
	4	2	398109.4	2586.686	-1211.823	1	2856.477	-25.10238	5.953271E-008	0.099565	8
	5	3	316265.6	2769.646	-1189.655	1	3014.335	-23.24513	4.49347E-008	0.0995086	8
	6	3	251203.1	2941.531	-1166.166	1	3164.261	-21.62578	6.322917E-008	0.0995037	8
	7	3	199546.9	3104.992	-1149.255	1	3310.855	-20.3111	5.836145E-008	0.099508	8
	8	4	158578.1	3262.185	-1133.489	1	3453.498	-19.16045	6.164154E-008	0.0995058	8
	9	4	125953.1	3446.092	-1073.023	1	3609.283	-17.29523	7.455022E-010	0.0994262	7
	10	4	100078.1	3579.315	-1070.794	1	3736.053	-16.65517	1.799604E-009	0.0994141	7
	11	5	79453.13	3721.441	-1087.159	1	3876.988	-16.28487	1.74333E-009	0.0994084	7
	12	5	63140.62	3863.031	-1109.605	1	4019.233	-16.02602	1.154216E-009	0.099398	7
	13	5	50203.12	4005.686	-1139.248	1	4164.542	-15.87616	1.57459E-009	0.0994044	7
	14	6	39890.62	4149.86	-1178.055	1	4313.833	-15.84809	1.790259E-009	0.0993905	7
	15	6	31640.63	4300.563	-1230.106	1	4473.031	-15.96232	9.073555E-010	0.0993975	7
	16	6	25171.88	4453.508	-1293.144	1	4637.451	-16.19147	1.665288E-009	0.0993956	7
	17	7	20015.62	4613.544	-1367.768	1	4812.024	-16.5134	2.268521E-009	0.0993924	7
	18	7	15890.62	4783.557	-1457.871	1	5000.781	-16.9495	1.959109E-009	0.0993905	7
	19	7	12609.37	4963.449	-1564.213	1	5204.093	-17.49205	2.731122E-009	0.0993923	7
	20	7	10078.13	5145.826	-1682.6	1	5413.933	-18.10688	2.617081E-009	0.0993838	7
	21	8	8015.625	5341.606	-1825.528	1	5644.937	-18.86819	1.459114E-009	0.0993916	7
	22	8	6328.125	5554.908	-1996.469	1	5902.786	-19.76875	1.729459E-009	0.0993859	7
	23	8	5015.625	5776.556	-2196.964	1	6180.23	-20.82302	3.766266E-009	0.0993914	7
	24	9	3984.375	6005.82	-2427.159	1	6477.729	-22.00534	2.04244E-009	0.0993834	7
	25	9	3170.956	6249.772	-2706.227	1	6810.53	-23.4132	2.941142E-009	0.0993905	7
	26	9	2527.573	6504.641	-3033.539	1	7177.236	-25.00271	1.845359E-009	0.0993845	7
	27	10	1976.103	6803.823	-3470.794	1	7637.959	-27.02723	2.529053E-009	0.099381	7
	28	10	1577.524	7105.33	-3954.108	1	8131.462	-29.09589	2.08604E-009	0.099383	7
	29	10	1265.625	7432.525	-4523.559	1	8700.862	-31.32539	2.918963E-009	0.0993841	7
	30	11	998.264	7823.592	-5257.41	1	9425.972	-33.90088	3.626603E-009	0.0993857	7
	31	11	796.875	8251.458	-6072.102	1	10244.85	-36.34869	-1.376978E-010	0.099433	6
	32	11	627.7902	8752.435	-7124.454	1	11285.52	-39.14548	1.478786E-010	0.0994396	6
	33	12	505.5147	9255.288	-8260.002	1	12405.16	-41.74773	-5.552502E-010	0.0994288	6
	34	12	397.9953	9871.8	-9764.66	1	13885.29	-44.68739	3.024043E-010	0.0994573	6
	35	12	315.5048	10540	-11539.29	1	15628.4	-47.59138	3.363248E-010	0.0994548	6
	36	13	252.4038	11257.4	-13605.3	1	17658.8	-50.39471	3.068966E-010	0.0994505	6
	37	13	198.6229	12129.79	-16312.23	1	20327.83	-53.36547	2.826892E-010	0.0994562	6
	38	13	158.3615	13075.48	-19443.25	1	23430.92	-56.07939	1.928133E-010	0.099452	6
	39	14	125.558	14198.63	-23361.21	1	27337.66	-58.70934	1.824672E-010	0.099457	6
	40	14	100.4464	15458.71	-27954.2	1	31943.84	-61.05735	1.551061E-010	0.0994515	6
	41	14	79.00281	17070.8	-34014.74	1	38058.04	-63.34954	2.941074E-010	0.0994502	6
	42	15	63.3446	18853.81	-40838.98	1	44980.98	-65.21902	2.118E-010	0.0994492	6
	43	15	49.86702	21209.76	-49887.53	1	54209.03	-66.96716	1.242751E-010	0.0994521	6
	44	15	39.72458	23996.69	-60432.67	1	65022.68	-68.34289	3.21565E-010	0.099449	6
	45	16	31.6723	27491.17	-73223.24	1	78213.86	-69.42169	1.834948E-010	0.0994466	6
	46	16	24.93351	32227.29	-89677.98	1	95292.9	-70.23325	4.995482E-010	0.0994428	6
	47	16	19.86229	38123.17	-108656.4	1	115150.3	-70.66607	3.351425E-010	0.0994547	5
	48	16	15.83615	45652.56	-131493.8	1	139193.3	-70.85381	5.342072E-010	0.099448	5
	49	17	12.40079	56436.66	-161141.8	1	170738.9	-70.69822	7.915352E-010	0.0994462	5
	50	17	9.93114	69140.97	-193143.5	1	205146	-70.30379	7.351527E-010	0.0994511	5
	51	17	7.944915	85640.47	-231273.7	1	246620.8	-69.68044	-7.967508E-011	0.0994506	5
	52	18	6.317385	107725.8	-276806.4	1	297029.7	-68.73531	3.554063E-010	0.0994341	5
	53	19	5.008013	136777.3	-330607.5	1	357783.9	-67.52438	3.060913E-010	0.0994409	5
	54	20	3.945707	174795.7	-393338	1	430428.1	-66.04009	-7.388348E-011	0.0994376	5
	55	20	3.158693	220221.7	-459196.2	1	509272.8	-64.37852	1.984975E-010	0.0994356	5
	56	21	2.504006	277638.2	-534712.1	1	602494.8	-62.56034	1.762815E-010	0.0994395	5
	57	23	1.998082	345808.8	-613793.5	1	704504.2	-60.60327	-1.894185E-011	0.0993918	5
	58	24	1.584686	425735.6	-701081.3	1	820223	-58.73155	-8.806207E-012	0.099413	5
	59	26	1.266892	516343.8	-788505.9	1	942524.5	-56.78168	5.186542E-011	0.0994482	5
	60	29	0.999041	626298.8	-889633.3	1	1087979	-54.85459	5.875164E-011	0.099463	4
