EXPLAIN
TAG	EISPOT
TITLE	LABEL	Potentiostatic EIS	Test &Identifier
DATE	LABEL	6/6/2020	Date
TIME	LABEL	13:47:15	Time
NOTES	NOTES	1	&Notes...
	
PSTAT	PSTAT	REF600-11020	Potentiostat
VDC	POTEN	0.00000E+000	T	DC &Voltage (V)
FREQINIT	QUANT	1.00000E+006	Initial Fre&q. (Hz)
FREQFINAL	QUANT	1.00000E+000	Final Fre&q. (Hz)
PTSPERDEC	QUANT	1.00000E+001	Points/&decade
VAC	QUANT	2.50000E+001	AC &Voltage (mV rms)
AREA	QUANT	2.50000E-001	&Area (cm^2)
CONDIT	TWOPARAM	F	5.00000E+000	0.00000E+000	Conditionin&g	Time(s)	E(V)
DELAY	TWOPARAM	T	3.00000E+000	0.00000E+000	Init. De&lay	Time(s)	Stab.(mV/s)
SPEED	SELECTOR	0	&Optimize for:
ZGUESS	QUANT	1.00000E+003	E&stimated Z (ohms)
OCVCURVE	TABLE	12
	Pt	T	Vf	Vm	Ach	Over
	#	s	V vs. Ref.	V	V	bits
	0	0.258333	1.05879E-001	1.05879E-001	5.73363E-004	...........
	1	0.516667	1.05879E-001	1.05867E-001	5.74963E-004	...........
	2	0.775	1.05877E-001	1.05852E-001	5.73063E-004	...........
	3	1.03333	1.05873E-001	1.05839E-001	5.72030E-004	...........
	4	1.29167	1.05865E-001	1.05824E-001	5.74063E-004	...........
	5	1.55	1.05853E-001	1.05813E-001	5.73863E-004	...........
	6	1.80833	1.05840E-001	1.05800E-001	5.72030E-004	...........
	7	2.06667	1.05827E-001	1.05789E-001	5.76330E-004	...........
	8	2.325	1.05814E-001	1.05773E-001	5.80097E-004	...........
	9	2.58333	1.05801E-001	1.05764E-001	5.79963E-004	...........
	10	2.84167	1.05789E-001	1.05752E-001	5.76063E-004	...........
	11	3.1	1.05777E-001	1.05743E-001	5.77130E-004	...........
EOC	QUANT	0.1057766	Open Circuit (V)
PSTATMODEL	IQUANT	4	Pstat Model
PSTATSECTION	LABEL	REF600-11020	Pstat Section
PSTATSERIALNO	LABEL	11020	Pstat Serial Number
CTRLMODE	IQUANT	1	Control Mode
IESTAB	IQUANT	0	I/E Stability
CASPEED	IQUANT	1	Control Amp Speed
CONVENTION	IQUANT	1	Current Convention
ICHRANGE	IQUANT	2	Ich Range
ICHRANGEMODE	TOGGLE	F	Ich Auto Range
ICHOFFSETENABLE	TOGGLE	T	Ich Offset Enable
ICHOFFSET	QUANT	0	Ich Offset (V)
ICHFILTER	IQUANT	3	Ich Filter
VCHRANGE	IQUANT	2	Vch Range
VCHRANGEMODE	TOGGLE	F	Vch Auto Range
VCHOFFSETENABLE	TOGGLE	T	Vch Offset Enable
VCHOFFSET	QUANT	0	Vch Offset (V)
VCHFILTER	IQUANT	3	Vch Filter
ACHRANGE	IQUANT	2	Ach Range
ACHOFFSETENABLE	TOGGLE	F	Ach Offset Enable
ACHOFFSET	QUANT	0	Ach Offset (V)
ACHFILTER	IQUANT	3	Ach Filter
IERANGELOWERLIMIT	IQUANT	1	I/E Range Lower Limit
IERANGEMODE	TOGGLE	F	I/E AutoRange
IERANGE	IQUANT	8	I/E Range
POSFEEDENABLE	TOGGLE	F	Positive Feedback IR Comp
POSFEEDRESISTANCE	QUANT	0	Positive Feedback Resistance (ohm)
ACHSELECT	IQUANT	0	Ach Select
CABLEID	IQUANT	14	Cable ID
DCCALDATE	LABEL	2/27/2020	DC Calibration Date
ACCALDATE	LABEL	2/27/2020	AC Calibration Date
THERMOSELECT	IQUANT	1	Thermo Select
FRAMEWORKVERSION	QUANT	6.33	Framework Version
INSTRUMENTVERSION	LABEL	3.50	Instrument Version
ZCURVE	TABLE
	Pt	Time	Freq	Zreal	Zimag	Zsig	Zmod	Zphz	Idc	Vdc	IERange
	#	s	Hz	ohm	ohm	V	ohm	°	A	V	#
	0	1	1000078	1963.398	-1928.843	1	2752.338	-44.49134	6.055905E-008	0.1081394	8
	1	2	794390.6	2330.777	-2050.241	1	3104.192	-41.33611	1.124709E-007	0.107755	8
	2	2	630984.4	2729.305	-2127.556	1	3460.578	-37.93723	3.357721E-008	0.1076225	8
	3	2	501234.4	3144.972	-2150.245	1	3809.777	-34.36077	6.533871E-008	0.1075041	8
	4	2	398109.4	3556.073	-2112.071	1	4136	-30.70749	2.311182E-009	0.1074716	8
	5	3	316265.6	3942.689	-2030.115	1	4434.655	-27.24422	7.100635E-008	0.1074236	8
	6	3	251203.1	4293.412	-1900.12	1	4695.087	-23.87257	6.800101E-008	0.1073983	8
	7	3	199546.9	4596.099	-1748.898	1	4917.598	-20.83272	3.969222E-008	0.1074092	8
	8	4	158578.1	4861.837	-1592.973	1	5116.153	-18.1413	5.870045E-008	0.1074038	8
	9	4	125953.1	5123.155	-1353.772	1	5299.001	-14.80184	2.330345E-009	0.1073412	7
	10	4	100078.1	5276.383	-1219.126	1	5415.393	-13.01007	2.231092E-009	0.107318	7
	11	5	79453.13	5417.613	-1107.399	1	5529.635	-11.55252	2.681106E-009	0.1073186	7
	12	5	63140.62	5535.601	-1012.65	1	5627.462	-10.36672	1.873231E-009	0.1073079	7
	13	5	50203.12	5635.8	-936.8267	1	5713.133	-9.437856	2.151407E-009	0.1073055	7
	14	6	39890.62	5723.335	-881.4376	1	5790.812	-8.755202	2.243609E-009	0.1073033	7
	15	6	31640.63	5804.593	-847.7626	1	5866.174	-8.309318	2.754587E-009	0.1073084	7
	16	6	25171.88	5877.816	-834.1808	1	5936.715	-8.077485	2.47018E-009	0.1073028	7
	17	7	20015.62	5948.498	-842.0286	1	6007.798	-8.05687	3.074439E-009	0.1073053	7
	18	7	15890.62	6020.404	-870.9404	1	6083.075	-8.231576	3.701877E-009	0.1073062	7
	19	7	12609.37	6096.227	-922.5873	1	6165.643	-8.605695	3.497463E-009	0.1072932	7
	20	8	10078.13	6171.958	-995.538	1	6251.732	-9.162902	3.645621E-009	0.1073052	7
	21	8	8015.625	6254.958	-1094.156	1	6349.935	-9.92214	4.133009E-009	0.1073053	7
	22	8	6328.125	6346.853	-1226.786	1	6464.329	-10.93982	3.26182E-009	0.1072977	7
	23	9	5015.625	6445.498	-1391.027	1	6593.891	-12.17843	3.153503E-009	0.1073012	7
	24	9	3984.375	6554.293	-1593.88	1	6745.31	-13.66794	5.116574E-009	0.1073051	7
	25	9	3170.956	6674.069	-1838.644	1	6922.702	-15.40239	5.196308E-009	0.1073049	7
	26	10	2527.573	6807.491	-2137.367	1	7135.143	-17.43087	5.640892E-009	0.1073034	7
	27	10	1976.103	6972.59	-2531.375	1	7417.875	-19.95325	5.078931E-009	0.1073048	7
	28	10	1577.524	7146.461	-2970.826	1	7739.361	-22.57295	4.757963E-009	0.1072986	7
	29	10	1265.625	7339.375	-3484.119	1	8124.377	-25.39444	3.852518E-009	0.1072972	7
	30	11	998.264	7573.772	-4157.152	1	8639.672	-28.76185	5.064282E-009	0.1072979	7
	31	11	796.875	7835.199	-4927.564	1	9255.876	-32.16583	3.438564E-009	0.1072923	7
	32	11	627.7902	8153.563	-5915.654	1	10073.51	-35.96201	-1.670886E-010	0.107348	6
	33	12	505.5147	8480.143	-7006.537	1	11000.2	-39.5645	-1.392575E-010	0.1073515	6
	34	12	397.9953	8895.222	-8473.065	1	12284.86	-43.60764	6.46074E-010	0.1073658	6
	35	12	315.5048	9364.138	-10221.41	1	13862.34	-47.50629	6.343167E-010	0.1073614	6
	36	13	252.4038	9892.85	-12274.8	1	15765.12	-51.133	6.387821E-010	0.1073569	6
	37	13	198.6229	10573.29	-14983.73	1	18338.66	-54.79125	6.694459E-010	0.1073568	6
	38	13	158.3615	11359.88	-18135	1	21399.19	-57.9367	5.383866E-010	0.1073584	6
	39	14	125.558	12364.14	-22091.55	1	25316.18	-60.76525	7.177637E-010	0.1073634	6
	40	14	100.4464	13587.07	-26735.32	1	29989.76	-63.06001	6.375366E-010	0.1073574	6
	41	14	79.00281	15288.31	-32845.16	1	36228.95	-65.03961	4.199064E-010	0.1073543	6
	42	15	63.3446	17329.84	-39668.64	1	43288.85	-66.40117	4.271406E-010	0.1073523	6
	43	15	49.86702	20239.75	-48589.91	1	52636.75	-67.38621	5.942622E-010	0.1073466	6
	44	15	39.72458	23906.23	-58795.63	1	63469.95	-67.87341	3.905227E-010	0.1073543	6
	45	16	31.6723	28696.22	-70848.35	1	76439.27	-67.95022	5.408159E-010	0.1073468	6
	46	16	24.93351	35361.64	-85896.35	1	92890.41	-67.62411	4.752198E-011	0.107348	6
	47	16	19.86229	43665.18	-102527.5	1	111438.5	-66.93147	-1.005141E-009	0.1073527	5
	48	17	15.83615	54263.31	-121645.4	1	133199.5	-65.9594	-1.764422E-010	0.1073525	5
	49	17	12.40079	68994.41	-145223.5	1	160779.6	-64.58802	-1.270522E-009	0.1073586	5
	50	17	9.93114	85505.56	-168903.6	1	189313.5	-63.14969	-1.338636E-009	0.1073539	5
	51	18	7.944915	105593.8	-195344	1	222057.1	-61.60642	-7.476826E-011	0.1073571	5
	52	18	6.317385	130308.7	-224759.7	1	259802.4	-59.89618	1.173391E-010	0.1073541	5
	53	19	5.008013	159977	-256903.1	1	302641.5	-58.08892	-2.389808E-010	0.1073493	5
	54	20	3.945707	195298.3	-292633.4	1	351817.7	-56.28156	-2.997013E-010	0.1073579	5
	55	21	3.158693	231980.9	-327135.1	1	401039.2	-54.65845	-5.022244E-011	0.1073413	5
	56	22	2.504006	274629.5	-366506.4	1	457982.9	-53.15515	3.19302E-010	0.1073462	5
	57	23	1.998082	318258.1	-406782	1	516487.9	-51.96109	9.213734E-011	0.1073279	5
	58	25	1.584686	367999.4	-454473.5	1	584781.8	-51.00198	-6.352782E-011	0.1072977	5
	59	27	1.266892	416989.7	-506674.8	1	656201	-50.54586	-3.020044E-011	0.1073236	5
	60	29	0.999041	472846.2	-569781.6	1	740428.7	-50.31165	-4.738926E-013	0.1073518	5
