EXPLAIN
TAG	EISPOT
TITLE	LABEL	Potentiostatic EIS	Test &Identifier
DATE	LABEL	3/17/2020	Date
TIME	LABEL	15:46:19	Time
NOTES	NOTES	1	&Notes...
	
PSTAT	PSTAT	REF600-11020	Potentiostat
VDC	POTEN	0.00000E+000	T	DC &Voltage (V)
FREQINIT	QUANT	1.00000E+006	Initial Fre&q. (Hz)
FREQFINAL	QUANT	1.00000E+000	Final Fre&q. (Hz)
PTSPERDEC	QUANT	1.00000E+001	Points/&decade
VAC	QUANT	2.50000E+001	AC &Voltage (mV rms)
AREA	QUANT	4.00000E-004	&Area (cm^2)
CONDIT	TWOPARAM	F	5.00000E+000	0.00000E+000	Conditionin&g	Time(s)	E(V)
DELAY	TWOPARAM	T	3.00000E+000	0.00000E+000	Init. De&lay	Time(s)	Stab.(mV/s)
SPEED	SELECTOR	0	&Optimize for:
ZGUESS	QUANT	5.00000E+003	E&stimated Z (ohms)
OCVCURVE	TABLE	12
	Pt	T	Vf	Vm	Ach	Over
	#	s	V vs. Ref.	V	V	bits
	0	0.258333	1.45362E-003	1.45362E-003	5.76430E-004	...........
	1	0.516667	1.45391E-003	1.46873E-003	5.77363E-004	...........
	2	0.775	1.45566E-003	1.48203E-003	5.78563E-004	...........
	3	1.03333	1.46047E-003	1.49009E-003	5.77130E-004	...........
	4	1.29167	1.46852E-003	1.49671E-003	5.80997E-004	...........
	5	1.55	1.47818E-003	1.50472E-003	5.80430E-004	...........
	6	1.80833	1.48761E-003	1.51079E-003	5.77597E-004	...........
	7	2.06667	1.49601E-003	1.51684E-003	5.83997E-004	...........
	8	2.325	1.50346E-003	1.52446E-003	5.80063E-004	...........
	9	2.58333	1.51027E-003	1.52837E-003	5.78697E-004	...........
	10	2.84167	1.51669E-003	1.53553E-003	5.77130E-004	...........
	11	3.1	1.52279E-003	1.53834E-003	5.76830E-004	...........
EOC	QUANT	0.0015228	Open Circuit (V)
PSTATMODEL	IQUANT	4	Pstat Model
PSTATSECTION	LABEL	REF600-11020	Pstat Section
PSTATSERIALNO	LABEL	11020	Pstat Serial Number
CTRLMODE	IQUANT	1	Control Mode
IESTAB	IQUANT	0	I/E Stability
CASPEED	IQUANT	1	Control Amp Speed
CONVENTION	IQUANT	1	Current Convention
ICHRANGE	IQUANT	2	Ich Range
ICHRANGEMODE	TOGGLE	F	Ich Auto Range
ICHOFFSETENABLE	TOGGLE	T	Ich Offset Enable
ICHOFFSET	QUANT	0	Ich Offset (V)
ICHFILTER	IQUANT	3	Ich Filter
VCHRANGE	IQUANT	2	Vch Range
VCHRANGEMODE	TOGGLE	F	Vch Auto Range
VCHOFFSETENABLE	TOGGLE	T	Vch Offset Enable
VCHOFFSET	QUANT	0	Vch Offset (V)
VCHFILTER	IQUANT	3	Vch Filter
ACHRANGE	IQUANT	2	Ach Range
ACHOFFSETENABLE	TOGGLE	F	Ach Offset Enable
ACHOFFSET	QUANT	0	Ach Offset (V)
ACHFILTER	IQUANT	3	Ach Filter
IERANGELOWERLIMIT	IQUANT	1	I/E Range Lower Limit
IERANGEMODE	TOGGLE	F	I/E AutoRange
IERANGE	IQUANT	5	I/E Range
POSFEEDENABLE	TOGGLE	F	Positive Feedback IR Comp
POSFEEDRESISTANCE	QUANT	0	Positive Feedback Resistance (ohm)
ACHSELECT	IQUANT	0	Ach Select
CABLEID	IQUANT	14	Cable ID
DCCALDATE	LABEL	2/27/2020	DC Calibration Date
ACCALDATE	LABEL	2/27/2020	AC Calibration Date
THERMOSELECT	IQUANT	1	Thermo Select
FRAMEWORKVERSION	QUANT	6.33	Framework Version
INSTRUMENTVERSION	LABEL	3.50	Instrument Version
ZCURVE	TABLE
	Pt	Time	Freq	Zreal	Zimag	Zsig	Zmod	Zphz	Idc	Vdc	IERange
	#	s	Hz	ohm	ohm	V	ohm	°	A	V	#
	0	1	1000078	2100.211	-1751.516	1	2734.72	-39.82714	2.781111E-009	0.003863	8
	1	1	794390.6	2452.569	-1772.906	1	3026.267	-35.8623	5.323471E-008	0.0035425	8
	2	2	630984.4	2798.168	-1741.385	1	3295.78	-31.89526	4.114598E-008	0.0033838	8
	3	2	501234.4	3120.241	-1661.835	1	3535.194	-28.03968	5.556266E-008	0.0033181	8
	4	2	398109.4	3410.54	-1550.851	1	3746.588	-24.45239	3.912672E-008	0.0032437	8
	5	3	316265.6	3656.21	-1424.985	1	3924.087	-21.29304	1.993757E-008	0.003222	8
	6	3	251203.1	3861.122	-1285.214	1	4069.403	-18.41055	3.204853E-008	0.0031936	8
	7	3	199546.9	4028.855	-1157.143	1	4191.736	-16.0248	3.098215E-008	0.0031871	8
	8	4	158578.1	4168.927	-1044.142	1	4297.696	-14.06095	1.936475E-008	0.0031873	8
	9	4	125953.1	4305.685	-898.2963	1	4398.393	-11.78459	-7.643114E-011	0.003142	7
	10	4	100078.1	4385.084	-821.2952	1	4461.333	-10.60819	2.395045E-009	0.0031384	7
	11	5	79453.13	4466.091	-770.9134	1	4532.139	-9.79359	6.823142E-010	0.0031283	7
	12	5	63140.62	4538.784	-736.1377	1	4598.093	-9.212487	1.630883E-009	0.0031295	7
	13	5	50203.12	4606.055	-718.4902	1	4661.756	-8.866015	1.419923E-009	0.0031214	7
	14	6	39890.62	4670.389	-717.2725	1	4725.146	-8.731194	1.227707E-009	0.0031236	7
	15	6	31640.63	4735.689	-734.1514	1	4792.258	-8.812145	1.601214E-009	0.003127	7
	16	6	25171.88	4801.078	-767.9636	1	4862.11	-9.087848	1.148043E-009	0.0031142	7
	17	6	20015.62	4870.525	-820.2819	1	4939.117	-9.5599	8.198997E-010	0.0031159	7
	18	7	15890.62	4946.271	-893.3604	1	5026.299	-10.23799	1.377786E-009	0.0031183	7
	19	7	12609.37	5029.026	-987.585	1	5125.079	-11.11019	2.660777E-009	0.0031141	7
	20	7	10078.13	5117.501	-1100.158	1	5234.421	-12.13276	8.902413E-010	0.0031104	7
	21	8	8015.625	5219.064	-1242.841	1	5365.005	-13.39465	1.340324E-009	0.0031039	7
	22	8	6328.125	5336.945	-1420.542	1	5522.764	-14.90492	1.691967E-009	0.0031116	7
	23	8	5015.625	5470.432	-1630.895	1	5708.366	-16.60085	9.684324E-010	0.0031084	7
	24	9	3984.375	5622.269	-1880.078	1	5928.289	-18.48986	2.184215E-009	0.0031056	7
	25	9	3170.956	5795.248	-2172.867	1	6189.204	-20.55301	2.211355E-009	0.0031101	7
	26	9	2527.573	5994.253	-2512.316	1	6499.446	-22.73957	1.221209E-009	0.0031024	7
	27	10	1976.103	6248.345	-2951.419	1	6910.332	-25.28381	1.933193E-009	0.003103	7
	28	10	1577.524	6519.012	-3420.524	1	7361.896	-27.68599	2.093986E-009	0.0031021	7
	29	10	1265.625	6828.817	-3960.468	1	7894.178	-30.11219	2.207762E-009	0.0031016	7
	30	11	998.264	7217.575	-4639.394	1	8580.057	-32.73255	3.077385E-009	0.0031065	7
	31	11	796.875	7644.635	-5381.785	1	9349.014	-35.14536	2.707198E-009	0.0030982	7
	32	11	627.7902	8180.139	-6307.171	1	10329.33	-37.63347	6.47119E-011	0.0031556	6
	33	12	505.5147	8737.4	-7282.704	1	11374.53	-39.81152	-3.131867E-010	0.0031547	6
	34	12	397.9953	9445.892	-8538.399	1	12732.99	-42.11129	3.550494E-010	0.0031747	6
	35	12	315.5048	10242.2	-9964.62	1	14289.73	-44.21299	5.075914E-010	0.0031674	6
	36	13	252.4038	11117.99	-11562.81	1	16040.83	-46.12356	4.379765E-010	0.0031731	6
	37	13	198.6229	12190.16	-13575.75	1	18245.57	-48.07819	5.084931E-010	0.003162	6
	38	13	158.3615	13345.45	-15819.42	1	20696.74	-49.84863	3.385808E-010	0.0031585	6
	39	13	125.558	14686.05	-18538.34	1	23650.59	-51.61378	3.592004E-010	0.003165	6
	40	14	100.4464	16145.64	-21641.8	1	27000.92	-53.27561	2.080142E-010	0.0031626	6
	41	14	79.00281	17941.36	-25647.26	1	31299.75	-55.02555	2.388971E-010	0.0031625	6
	42	14	63.3446	19852.42	-30080.85	1	36041.31	-56.57643	1.399253E-010	0.0031588	6
	43	15	49.86702	22290.4	-35872.11	1	42233.52	-58.14378	2.368059E-010	0.0031551	6
	44	15	39.72458	25085.14	-42518.63	1	49366.98	-59.46025	3.86818E-010	0.0031647	6
	45	16	31.6723	28477.03	-50438	1	57921.78	-60.55116	6.645234E-010	0.0031583	6
	46	16	24.93351	32943.16	-60426.07	1	68822.68	-61.40161	4.915092E-010	0.0031579	6
	47	16	19.86229	38197.83	-71708.87	1	81247.99	-61.9567	1.902273E-009	0.0031647	6
	48	16	15.83615	44850.77	-84884.31	1	96004.9	-62.14914	-8.122128E-010	0.0031582	6
	49	17	12.40079	53743.9	-101364.7	1	114731	-62.06731	-1.127437E-009	0.0031631	5
	50	17	9.93114	63799.31	-118612.5	1	134682.2	-61.72508	-1.582785E-009	0.0031662	5
	51	17	7.944915	75711.16	-138494.6	1	157838.3	-61.3358	-8.815483E-010	0.0031673	5
	52	18	6.317385	90848.19	-161512.5	1	185309.7	-60.64295	2.074319E-010	0.0031533	5
	53	19	5.008013	109250.8	-187914.8	1	217365.4	-59.82694	-1.115111E-010	0.0031532	5
	54	20	3.945707	131575.8	-218608.4	1	255150.6	-58.95714	-3.316483E-010	0.0031605	5
	55	20	3.158693	155897.8	-249967.1	1	294597.4	-58.04931	-3.066892E-012	0.0031417	5
	56	21	2.504006	185256.7	-286854.2	1	341475.3	-57.14474	3.585729E-010	0.0031508	5
	57	23	1.998082	216806.7	-325583	1	391164.2	-56.34023	6.484237E-011	0.0031305	5
	58	24	1.584686	254017.8	-371596.7	1	450121.2	-55.64408	-6.682695E-011	0.0031093	5
	59	26	1.266892	291795.3	-421515.4	1	512659.5	-55.30697	1.148723E-011	0.0031212	5
	60	29	0.999041	335808	-481466.9	1	587007.2	-55.10544	4.348818E-011	0.0031523	5
