EXPLAIN
TAG	EISPOT
TITLE	LABEL	Potentiostatic EIS	Test &Identifier
DATE	LABEL	5/26/2020	Date
TIME	LABEL	17:54:05	Time
NOTES	NOTES	1	&Notes...
	
PSTAT	PSTAT	REF600-11020	Potentiostat
VDC	POTEN	0.00000E+000	T	DC &Voltage (V)
FREQINIT	QUANT	1.00000E+006	Initial Fre&q. (Hz)
FREQFINAL	QUANT	1.00000E+000	Final Fre&q. (Hz)
PTSPERDEC	QUANT	1.00000E+001	Points/&decade
VAC	QUANT	2.50000E+001	AC &Voltage (mV rms)
AREA	QUANT	5.00000E-004	&Area (cm^2)
CONDIT	TWOPARAM	F	5.00000E+000	0.00000E+000	Conditionin&g	Time(s)	E(V)
DELAY	TWOPARAM	T	3.00000E+000	0.00000E+000	Init. De&lay	Time(s)	Stab.(mV/s)
SPEED	SELECTOR	0	&Optimize for:
ZGUESS	QUANT	1.00000E+003	E&stimated Z (ohms)
OCVCURVE	TABLE	12
	Pt	T	Vf	Vm	Ach	Over
	#	s	V vs. Ref.	V	V	bits
	0	0.258333	8.99935E-003	8.99935E-003	5.84097E-004	...........
	1	0.516667	8.99885E-003	8.97318E-003	5.80597E-004	...........
	2	0.775	8.99590E-003	8.95474E-003	5.89963E-004	...........
	3	1.03333	8.98797E-003	8.93738E-003	5.84063E-004	...........
	4	1.29167	8.97454E-003	8.91779E-003	5.85496E-004	...........
	5	1.55	8.95748E-003	8.90120E-003	5.84497E-004	...........
	6	1.80833	8.93904E-003	8.88344E-003	5.84063E-004	...........
	7	2.06667	8.92053E-003	8.86382E-003	5.86596E-004	...........
	8	2.325	8.90236E-003	8.85134E-003	5.85730E-004	...........
	9	2.58333	8.88472E-003	8.83560E-003	5.91096E-004	...........
	10	2.84167	8.86798E-003	8.82395E-003	5.86263E-004	...........
	11	3.1	8.85240E-003	8.80783E-003	5.83397E-004	...........
EOC	QUANT	0.0088524	Open Circuit (V)
PSTATMODEL	IQUANT	4	Pstat Model
PSTATSECTION	LABEL	REF600-11020	Pstat Section
PSTATSERIALNO	LABEL	11020	Pstat Serial Number
CTRLMODE	IQUANT	1	Control Mode
IESTAB	IQUANT	0	I/E Stability
CASPEED	IQUANT	1	Control Amp Speed
CONVENTION	IQUANT	1	Current Convention
ICHRANGE	IQUANT	2	Ich Range
ICHRANGEMODE	TOGGLE	F	Ich Auto Range
ICHOFFSETENABLE	TOGGLE	T	Ich Offset Enable
ICHOFFSET	QUANT	0	Ich Offset (V)
ICHFILTER	IQUANT	3	Ich Filter
VCHRANGE	IQUANT	2	Vch Range
VCHRANGEMODE	TOGGLE	F	Vch Auto Range
VCHOFFSETENABLE	TOGGLE	T	Vch Offset Enable
VCHOFFSET	QUANT	0	Vch Offset (V)
VCHFILTER	IQUANT	3	Vch Filter
ACHRANGE	IQUANT	2	Ach Range
ACHOFFSETENABLE	TOGGLE	F	Ach Offset Enable
ACHOFFSET	QUANT	0	Ach Offset (V)
ACHFILTER	IQUANT	3	Ach Filter
IERANGELOWERLIMIT	IQUANT	1	I/E Range Lower Limit
IERANGEMODE	TOGGLE	F	I/E AutoRange
IERANGE	IQUANT	7	I/E Range
POSFEEDENABLE	TOGGLE	F	Positive Feedback IR Comp
POSFEEDRESISTANCE	QUANT	0	Positive Feedback Resistance (ohm)
ACHSELECT	IQUANT	0	Ach Select
CABLEID	IQUANT	14	Cable ID
DCCALDATE	LABEL	2/27/2020	DC Calibration Date
ACCALDATE	LABEL	2/27/2020	AC Calibration Date
THERMOSELECT	IQUANT	1	Thermo Select
FRAMEWORKVERSION	QUANT	6.33	Framework Version
INSTRUMENTVERSION	LABEL	3.50	Instrument Version
ZCURVE	TABLE
	Pt	Time	Freq	Zreal	Zimag	Zsig	Zmod	Zphz	Idc	Vdc	IERange
	#	s	Hz	ohm	ohm	V	ohm	°	A	V	#
	0	1	1000078	1675.245	-2526.236	1	3031.223	-56.4501	3.067656E-008	0.0112221	8
	1	2	794390.6	1991.841	-2893.621	1	3512.9	-55.45819	6.531916E-008	0.0108879	8
	2	2	630984.4	2370.69	-3301.362	1	4064.377	-54.31807	5.541236E-008	0.0107299	8
	3	2	501234.4	2812.567	-3748.102	1	4686.022	-53.11552	3.242469E-008	0.0106089	8
	4	2	398109.4	3338.625	-4243.483	1	5399.404	-51.80556	5.235566E-008	0.0105583	8
	5	3	316265.6	3962.236	-4753.854	1	6188.574	-50.18951	4.194681E-008	0.0105279	8
	6	3	251203.1	4679.165	-5307.25	1	7075.414	-48.59882	3.378409E-008	0.0105055	8
	7	3	199546.9	5524.636	-5852.918	1	8048.494	-46.65273	7.014617E-008	0.0105146	8
	8	4	158578.1	6513.479	-6386.667	1	9122.222	-44.43679	3.568775E-008	0.0104993	8
	9	4	125953.1	7752.078	-6802.48	1	10313.51	-41.26708	2.004652E-009	0.0104427	7
	10	4	100078.1	8946.348	-7212.309	1	11491.5	-38.87484	2.050396E-009	0.0104266	7
	11	5	79453.13	10278.59	-7560.989	1	12760.02	-36.33841	2.54015E-009	0.010425	7
	12	5	63140.62	11695.86	-7732.894	1	14021.08	-33.47129	2.126023E-009	0.0104144	7
	13	5	50203.12	13139.97	-7755.987	1	15258.25	-30.55162	3.331821E-009	0.0104252	7
	14	6	39890.62	14563.76	-7583.881	1	16420.06	-27.50764	1.768952E-009	0.0104094	7
	15	6	31640.63	15924.05	-7245.221	1	17494.82	-24.46487	2.34606E-009	0.010409	7
	16	6	25171.88	17154.3	-6807.94	1	18455.84	-21.64639	3.654522E-009	0.0104185	7
	17	7	20015.62	18205.06	-6266.268	1	19253.32	-18.99371	2.548432E-009	0.010413	7
	18	7	15890.62	19096.45	-5710.346	1	19931.95	-16.64806	2.601718E-009	0.0104117	7
	19	7	12609.37	19978.57	-4891.624	1	20568.7	-13.75784	5.006473E-010	0.0104639	6
	20	8	10078.13	20513.89	-4464.368	1	20994.05	-12.27765	5.018925E-010	0.010461	6
	21	8	8015.625	20958.5	-4113.146	1	21358.29	-11.1033	4.320447E-010	0.0104678	6
	22	8	6328.125	21333.57	-3850.972	1	21678.36	-10.2324	4.1016E-010	0.0104654	6
	23	9	5015.625	21651.37	-3699.316	1	21965.12	-9.69584	4.318836E-010	0.0104611	6
	24	9	3984.375	21941.85	-3662.234	1	22245.38	-9.475682	3.476533E-010	0.0104659	6
	25	9	3170.956	22191.69	-3732.308	1	22503.36	-9.54694	3.518707E-010	0.0104664	6
	26	9	2527.573	22459.97	-3917.045	1	22798.98	-9.89295	1.805943E-010	0.0104603	6
	27	10	1976.103	22752.94	-4251.45	1	23146.73	-10.58383	2.307607E-010	0.010461	6
	28	10	1577.524	23038.97	-4691.24	1	23511.74	-11.50933	1.468444E-010	0.010458	6
	29	10	1265.625	23342.67	-5254.581	1	23926.78	-12.68618	1.998191E-010	0.0104589	6
	30	11	998.264	23712.03	-6029.437	1	24466.6	-14.26668	1.238832E-010	0.0104548	6
	31	11	796.875	24105.66	-6948.332	1	25087.09	-16.07935	-4.438699E-012	0.0104558	6
	32	11	627.7902	24576.74	-8141.09	1	25890.03	-18.32755	-5.11467E-011	0.0104499	6
	33	12	505.5147	25075.81	-9470.86	1	26804.73	-20.691	1.806098E-011	0.0104481	6
	34	12	397.9953	25681.96	-11242.71	1	28035.01	-23.6422	2.901149E-010	0.0104719	6
	35	12	315.5048	26353.99	-13350.79	1	29542.79	-26.86653	1.975907E-010	0.0104694	6
	36	13	252.4038	27078.59	-15817.61	1	31359.96	-30.29079	1.678579E-010	0.0104638	6
	37	13	198.6229	27979.24	-19063.97	1	33856.65	-34.269	1.418806E-010	0.0104638	6
	38	13	158.3615	28936.35	-22841.46	1	36865.22	-38.28647	1.881415E-010	0.0104663	6
	39	14	125.558	30103.29	-27602.47	1	40842.43	-42.5185	6.386797E-011	0.0104638	6
	40	14	100.4464	31439.03	-33216.99	1	45735.99	-46.57517	1.780887E-010	0.0104641	6
	41	14	79.00281	33202.96	-40665.54	1	52498.79	-50.76874	1.182896E-010	0.0104584	6
	42	15	63.3446	35208.71	-49080.1	1	60402.89	-54.34539	6.770512E-011	0.0104616	6
	43	15	49.86702	37966.26	-60244.87	1	71210.13	-57.78091	-4.981082E-011	0.01046	6
	44	15	39.72458	41349.12	-73256.77	1	84120.77	-60.55783	2.69947E-011	0.0104626	6
	45	16	31.6723	45669.11	-89001.89	1	100035	-62.8365	3.673472E-011	0.0104604	6
	46	16	24.93351	51684.64	-109127.8	1	120748.4	-64.65703	-5.160637E-011	0.0104613	5
	47	16	19.86229	59199.33	-132412.8	1	145043.9	-65.91147	-1.02847E-010	0.0104674	5
	48	17	15.83615	68983.76	-160139.6	1	174365.8	-66.69494	1.106754E-010	0.0104637	5
	49	17	12.40079	83062.59	-195964	1	212841	-67.02954	5.179304E-010	0.0104649	5
	50	17	9.93114	99715.7	-234388.3	1	254717.7	-66.95367	5.2577E-010	0.0104728	5
	51	17	7.944915	121510.5	-279717.5	1	304970	-66.51968	-1.64678E-010	0.0104618	5
	52	18	6.317385	150262	-333295.7	1	365601.8	-65.7324	8.688066E-011	0.0104608	5
	53	19	5.008013	187936.7	-395515.9	1	437896.1	-64.58441	2.339966E-010	0.0104747	5
	54	20	3.945707	237624.7	-467109.6	1	524077.1	-63.03697	4.77761E-011	0.010458	5
	55	20	3.158693	294674.2	-541169.4	1	616195.8	-61.4311	1.94513E-010	0.0104737	5
	56	22	2.504006	367761.3	-623565.4	1	723935.2	-59.46909	2.156297E-012	0.0104688	5
	57	23	1.998082	450462.7	-709132.1	1	840110.1	-57.57502	-6.753773E-011	0.0104405	5
	58	24	1.584686	550586.5	-798272.7	1	969734	-55.40511	1.200596E-011	0.0104888	5
	59	26	1.266892	661714.3	-891429.4	1	1110186	-53.41324	4.35984E-011	0.0104933	4
	60	29	0.999041	788261.3	-994027	1	1268639	-51.58565	9.05969E-011	0.0104858	4
