EXPLAIN
TAG	EISPOT
TITLE	LABEL	Potentiostatic EIS	Test &Identifier
DATE	LABEL	5/26/2020	Date
TIME	LABEL	18:19:48	Time
NOTES	NOTES	1	&Notes...
	
PSTAT	PSTAT	REF600-11020	Potentiostat
VDC	POTEN	0.00000E+000	T	DC &Voltage (V)
FREQINIT	QUANT	1.00000E+006	Initial Fre&q. (Hz)
FREQFINAL	QUANT	1.00000E+000	Final Fre&q. (Hz)
PTSPERDEC	QUANT	1.00000E+001	Points/&decade
VAC	QUANT	2.50000E+001	AC &Voltage (mV rms)
AREA	QUANT	5.00000E-004	&Area (cm^2)
CONDIT	TWOPARAM	F	5.00000E+000	0.00000E+000	Conditionin&g	Time(s)	E(V)
DELAY	TWOPARAM	T	3.00000E+000	0.00000E+000	Init. De&lay	Time(s)	Stab.(mV/s)
SPEED	SELECTOR	0	&Optimize for:
ZGUESS	QUANT	1.00000E+003	E&stimated Z (ohms)
OCVCURVE	TABLE	12
	Pt	T	Vf	Vm	Ach	Over
	#	s	V vs. Ref.	V	V	bits
	0	0.258333	7.71451E-002	7.71451E-002	5.93163E-004	...........
	1	0.516667	7.71446E-002	7.71161E-002	5.88596E-004	...........
	2	0.775	7.71414E-002	7.70990E-002	5.86863E-004	...........
	3	1.03333	7.71328E-002	7.70771E-002	5.96430E-004	...........
	4	1.29167	7.71186E-002	7.70625E-002	5.93730E-004	...........
	5	1.55	7.71008E-002	7.70503E-002	5.91130E-004	...........
	6	1.80833	7.70826E-002	7.70319E-002	5.94163E-004	...........
	7	2.06667	7.70655E-002	7.70197E-002	5.90096E-004	...........
	8	2.325	7.70498E-002	7.70070E-002	5.90496E-004	...........
	9	2.58333	7.70352E-002	7.70022E-002	5.87630E-004	...........
	10	2.84167	7.70221E-002	7.69900E-002	5.97996E-004	...........
	11	3.1	7.70109E-002	7.69833E-002	5.94330E-004	...........
EOC	QUANT	0.0770109	Open Circuit (V)
PSTATMODEL	IQUANT	4	Pstat Model
PSTATSECTION	LABEL	REF600-11020	Pstat Section
PSTATSERIALNO	LABEL	11020	Pstat Serial Number
CTRLMODE	IQUANT	1	Control Mode
IESTAB	IQUANT	0	I/E Stability
CASPEED	IQUANT	1	Control Amp Speed
CONVENTION	IQUANT	1	Current Convention
ICHRANGE	IQUANT	2	Ich Range
ICHRANGEMODE	TOGGLE	F	Ich Auto Range
ICHOFFSETENABLE	TOGGLE	T	Ich Offset Enable
ICHOFFSET	QUANT	0	Ich Offset (V)
ICHFILTER	IQUANT	3	Ich Filter
VCHRANGE	IQUANT	2	Vch Range
VCHRANGEMODE	TOGGLE	F	Vch Auto Range
VCHOFFSETENABLE	TOGGLE	T	Vch Offset Enable
VCHOFFSET	QUANT	0	Vch Offset (V)
VCHFILTER	IQUANT	3	Vch Filter
ACHRANGE	IQUANT	2	Ach Range
ACHOFFSETENABLE	TOGGLE	F	Ach Offset Enable
ACHOFFSET	QUANT	0	Ach Offset (V)
ACHFILTER	IQUANT	3	Ach Filter
IERANGELOWERLIMIT	IQUANT	1	I/E Range Lower Limit
IERANGEMODE	TOGGLE	F	I/E AutoRange
IERANGE	IQUANT	8	I/E Range
POSFEEDENABLE	TOGGLE	F	Positive Feedback IR Comp
POSFEEDRESISTANCE	QUANT	0	Positive Feedback Resistance (ohm)
ACHSELECT	IQUANT	0	Ach Select
CABLEID	IQUANT	14	Cable ID
DCCALDATE	LABEL	2/27/2020	DC Calibration Date
ACCALDATE	LABEL	2/27/2020	AC Calibration Date
THERMOSELECT	IQUANT	1	Thermo Select
FRAMEWORKVERSION	QUANT	6.33	Framework Version
INSTRUMENTVERSION	LABEL	3.50	Instrument Version
ZCURVE	TABLE
	Pt	Time	Freq	Zreal	Zimag	Zsig	Zmod	Zphz	Idc	Vdc	IERange
	#	s	Hz	ohm	ohm	V	ohm	°	A	V	#
	0	1	1000078	1664.159	-2446.348	1	2958.723	-55.774	3.004498E-008	0.0793267	8
	1	1	794390.6	1995.3	-2775.467	1	3418.251	-54.28741	4.722127E-008	0.0790139	8
	2	2	630984.4	2376.089	-3126.577	1	3926.994	-52.76645	4.545393E-008	0.0788785	8
	3	2	501234.4	2800.202	-3502.372	1	4484.166	-51.35711	4.976951E-008	0.0788022	8
	4	2	398109.4	3285.1	-3908.937	1	5106.043	-49.95605	5.588526E-008	0.078741	8
	5	2	316265.6	3821.406	-4349.651	1	5789.871	-48.69893	5.195103E-008	0.0787263	8
	6	3	251203.1	4456.444	-4824.216	1	6567.568	-47.26932	4.582611E-008	0.0787216	8
	7	3	199546.9	5175.541	-5353.565	1	7446.266	-45.96866	5.28825E-008	0.0787142	8
	8	3	158578.1	6010.484	-5863.592	1	8396.882	-44.29124	4.213065E-008	0.0786991	8
	9	4	125953.1	7115.983	-6337.027	1	9528.65	-41.68616	3.277616E-009	0.0786557	7
	10	4	100078.1	8190.306	-6807.769	1	10650.2	-39.7333	2.686882E-009	0.0786361	7
	11	4	79453.13	9445.607	-7245.502	1	11904.49	-37.49096	3.936127E-009	0.0786351	7
	12	5	63140.62	10820.71	-7526.768	1	13181.05	-34.82205	2.975833E-009	0.0786222	7
	13	5	50203.12	12261.71	-7642.27	1	14448.31	-31.93377	3.122257E-009	0.0786231	7
	14	5	39890.62	13708.34	-7553.276	1	15651.53	-28.8547	2.608746E-009	0.0786204	7
	15	6	31640.63	15125.54	-7296.837	1	16793.62	-25.75352	3.663433E-009	0.0786256	7
	16	6	25171.88	16394.02	-6861.603	1	17772.04	-22.71141	3.238524E-009	0.0786174	7
	17	6	20015.62	17497.22	-6317.648	1	18602.83	-19.85292	3.061161E-009	0.0786158	7
	18	7	15890.62	18455.99	-5748.891	1	19330.63	-17.30139	3.803288E-009	0.0786187	7
	19	7	12609.37	19345.02	-4923.679	1	19961.78	-14.27968	5.540871E-010	0.0786707	6
	20	7	10078.13	19897.71	-4448.538	1	20388.93	-12.60239	6.41448E-010	0.078673	6
	21	7	8015.625	20333.07	-4046.03	1	20731.71	-11.25415	4.772027E-010	0.078667	6
	22	8	6328.125	20705.01	-3737.973	1	21039.72	-10.23365	4.956431E-010	0.078672	6
	23	8	5015.625	20996.16	-3545.433	1	21293.39	-9.58461	4.406412E-010	0.0786621	6
	24	8	3984.375	21234.53	-3468.26	1	21515.9	-9.276275	5.147064E-010	0.0786713	6
	25	9	3170.956	21459.02	-3505.313	1	21743.43	-9.277281	2.171699E-010	0.0786578	6
	26	9	2527.573	21681.37	-3664.059	1	21988.79	-9.59211	4.004744E-010	0.0786634	6
	27	9	1976.103	21902.99	-3976.681	1	22261.06	-10.29046	3.114027E-010	0.0786587	6
	28	10	1577.524	22128.05	-4405.44	1	22562.33	-11.25971	2.570134E-010	0.078656	6
	29	10	1265.625	22359.37	-4970.441	1	22905.17	-12.53294	2.482639E-010	0.0786541	6
	30	10	998.264	22644.75	-5768.463	1	23367.92	-14.29142	3.185323E-010	0.0786583	6
	31	11	796.875	22949.96	-6729.339	1	23916.2	-16.34208	2.751401E-010	0.0786583	6
	32	11	627.7902	23333.62	-8013.636	1	24671.36	-18.95439	2.765059E-010	0.0786614	6
	33	11	505.5147	23726.81	-9449.86	1	25539.41	-21.71629	1.841766E-010	0.0786618	6
	34	12	397.9953	24257.75	-11406.54	1	26805.74	-25.18397	4.852798E-010	0.0786837	6
	35	12	315.5048	24885.97	-13748.6	1	28431.24	-28.91906	4.770033E-010	0.0786806	6
	36	12	252.4038	25594.75	-16493.82	1	30448.93	-32.79863	4.551987E-010	0.0786791	6
	37	13	198.6229	26544.41	-20096.46	1	33293.74	-37.12893	3.274467E-010	0.0786762	6
	38	13	158.3615	27657.5	-24255.79	1	36786.96	-41.25095	3.040036E-010	0.0786736	6
	39	13	125.558	29053.64	-29436.58	1	41359.72	-45.37511	3.196291E-010	0.0786765	6
	40	14	100.4464	30721.8	-35469.69	1	46924.7	-49.10278	3.56237E-010	0.0786746	6
	41	14	79.00281	32978.22	-43353.33	1	54470.86	-52.7403	3.021629E-010	0.0786727	6
	42	14	63.3446	35576.23	-52140.13	1	63121	-55.69352	2.874221E-010	0.0786687	6
	43	15	49.86702	39116.54	-63633.59	1	74694.96	-58.42032	2.994522E-010	0.0786645	6
	44	15	39.72458	43407.68	-76857.41	1	88268.27	-60.54302	3.589723E-010	0.0786722	6
	45	15	31.6723	48860.98	-92607.42	1	104706.9	-62.18324	8.070433E-011	0.0786744	5
	46	16	24.93351	56248	-112705.9	1	125962.1	-63.47765	-8.294386E-012	0.0786731	5
	47	16	19.86229	65352.8	-135518.7	1	150453.6	-64.25468	4.47329E-010	0.0786806	5
	48	16	15.83615	77088.44	-162558.5	1	179910.8	-64.62877	-2.591819E-010	0.0786738	5
	49	16	12.40079	93755.12	-196725.6	1	217924.3	-64.51855	2.13336E-010	0.0786718	5
	50	17	9.93114	113373.1	-232944.2	1	259068.4	-64.04798	-1.573807E-010	0.0786733	5
	51	17	7.944915	138086.3	-274060.7	1	306882.9	-63.25862	-5.137535E-010	0.0786785	5
	52	18	6.317385	170475.6	-321289.9	1	363715.7	-62.0497	2.038378E-010	0.0786571	5
	53	18	5.008013	211247.5	-374310.6	1	429806.8	-60.56117	6.810504E-011	0.0786658	5
	54	19	3.945707	261094.9	-433533.8	1	506085.1	-58.94163	-1.902726E-010	0.0786668	5
	55	20	3.158693	316370	-491653.8	1	584648.1	-57.23948	5.33469E-011	0.0786565	5
	56	21	2.504006	381686.4	-557287.9	1	675466	-55.59276	1.760036E-010	0.0786576	5
	57	22	1.998082	452394.3	-623499.1	1	770332.2	-54.03636	6.032111E-012	0.0786288	5
	58	24	1.584686	533112.4	-700436.8	1	880238.9	-52.72472	-4.266694E-011	0.0786194	5
	59	26	1.266892	617495.8	-780585.9	1	995297	-51.65364	-3.990194E-011	0.0786494	4
	60	28	0.999041	716132.8	-873558.6	1	1129580	-50.65551	-1.483315E-011	0.0786712	4
