EXPLAIN
TAG	EISPOT
TITLE	LABEL	Potentiostatic EIS	Test &Identifier
DATE	LABEL	1/7/2020	Date
TIME	LABEL	16:34:55	Time
NOTES	NOTES	5	&Notes...
	
	
	
	
	
PSTAT	PSTAT	REF600-11020	Potentiostat
VDC	POTEN	0.00000E+000	T	DC &Voltage (V)
FREQINIT	QUANT	1.00000E+006	Initial Fre&q. (Hz)
FREQFINAL	QUANT	1.00000E+000	Final Fre&q. (Hz)
PTSPERDEC	QUANT	1.00000E+001	Points/&decade
VAC	QUANT	2.50000E+001	AC &Voltage (mV rms)
AREA	QUANT	1.00000E-001	&Area (cm^2)
CONDIT	TWOPARAM	T	5.00000E+000	0.00000E+000	Conditionin&g	Time(s)	E(V)
DELAY	TWOPARAM	T	5.00000E+000	0.00000E+000	Init. De&lay	Time(s)	Stab.(mV/s)
SPEED	SELECTOR	0	&Optimize for:
ZGUESS	QUANT	1.00000E+003	E&stimated Z (ohms)
OCVCURVE	TABLE	19
	Pt	T	Vf	Vm	Ach	Over
	#	s	V vs. Ref.	V	V	bits
	0	0.258333	7.19373E-003	7.19373E-003	6.52913E-004	...........
	1	0.516667	7.19462E-003	7.24068E-003	6.46080E-004	...........
	2	0.775	7.19518E-003	7.02588E-003	6.51746E-004	...........
	3	1.03333	7.18334E-003	6.97957E-003	6.44480E-004	...........
	4	1.29167	7.14296E-003	6.90205E-003	6.48013E-004	...........
	5	1.55	7.07445E-003	6.82763E-003	6.46246E-004	...........
	6	1.80833	6.98911E-003	6.52870E-003	6.48246E-004	...........
	7	2.06667	6.88786E-003	6.57289E-003	6.48846E-004	...........
	8	2.325	6.77531E-003	6.66330E-003	6.48313E-004	...........
	9	2.58333	6.68176E-003	6.68531E-003	6.51113E-004	...........
	10	2.84167	6.63744E-003	6.68841E-003	6.49180E-004	...........
	11	3.1	6.63772E-003	6.64683E-003	6.46580E-004	...........
	12	3.35833	6.65483E-003	6.71742E-003	6.50213E-004	...........
	13	3.61667	6.66987E-003	6.68228E-003	6.49846E-004	...........
	14	3.875	6.67863E-003	6.61418E-003	6.48346E-004	...........
	15	4.13333	6.67766E-003	6.61438E-003	6.48813E-004	...........
	16	4.39167	6.66203E-003	6.51456E-003	6.47813E-004	...........
	17	4.65	6.63389E-003	6.62527E-003	6.49780E-004	...........
	18	4.90833	6.60359E-003	6.50437E-003	6.52546E-004	...........
EOC	QUANT	0.0066036	Open Circuit (V)
PSTATMODEL	IQUANT	4	Pstat Model
PSTATSECTION	LABEL	REF600-11020	Pstat Section
PSTATSERIALNO	LABEL	11020	Pstat Serial Number
CTRLMODE	IQUANT	1	Control Mode
IESTAB	IQUANT	0	I/E Stability
CASPEED	IQUANT	1	Control Amp Speed
CONVENTION	IQUANT	1	Current Convention
ICHRANGE	IQUANT	2	Ich Range
ICHRANGEMODE	TOGGLE	F	Ich Auto Range
ICHOFFSETENABLE	TOGGLE	T	Ich Offset Enable
ICHOFFSET	QUANT	0	Ich Offset (V)
ICHFILTER	IQUANT	3	Ich Filter
VCHRANGE	IQUANT	2	Vch Range
VCHRANGEMODE	TOGGLE	F	Vch Auto Range
VCHOFFSETENABLE	TOGGLE	T	Vch Offset Enable
VCHOFFSET	QUANT	0	Vch Offset (V)
VCHFILTER	IQUANT	3	Vch Filter
ACHRANGE	IQUANT	2	Ach Range
ACHOFFSETENABLE	TOGGLE	F	Ach Offset Enable
ACHOFFSET	QUANT	0	Ach Offset (V)
ACHFILTER	IQUANT	3	Ach Filter
IERANGELOWERLIMIT	IQUANT	1	I/E Range Lower Limit
IERANGEMODE	TOGGLE	F	I/E AutoRange
IERANGE	IQUANT	7	I/E Range
POSFEEDENABLE	TOGGLE	F	Positive Feedback IR Comp
POSFEEDRESISTANCE	QUANT	0	Positive Feedback Resistance (ohm)
ACHSELECT	IQUANT	0	Ach Select
CABLEID	IQUANT	14	Cable ID
DCCALDATE	LABEL	12/22/2019	DC Calibration Date
ACCALDATE	LABEL	12/22/2019	AC Calibration Date
THERMOSELECT	IQUANT	1	Thermo Select
FRAMEWORKVERSION	QUANT	6.33	Framework Version
INSTRUMENTVERSION	LABEL	3.50	Instrument Version
ZCURVE	TABLE
	Pt	Time	Freq	Zreal	Zimag	Zsig	Zmod	Zphz	Idc	Vdc	IERange
	#	s	Hz	ohm	ohm	V	ohm	°	A	V	#
	0	1	1000078	2407.735	-1768.974	1	2987.718	-36.30489	2.825358E-006	0.0085328	8
	1	1	794390.6	2762.833	-1695.983	1	3241.852	-31.54396	-1.97779E-008	0.0081522	8
	2	1	630984.4	3111.67	-1597.232	1	3497.662	-27.1716	-1.410112E-006	0.0084846	8
	3	2	501234.4	3364.549	-1443.114	1	3660.979	-23.21534	7.542956E-007	0.0080556	8
	4	2	398109.4	3576.815	-1280.988	1	3799.281	-19.7043	-5.915201E-007	0.008254	8
	5	2	316265.6	3751.52	-1134.774	1	3919.39	-16.82971	-9.807328E-007	0.0082694	8
	6	3	251203.1	3867.957	-996.641	1	3994.294	-14.44888	6.66771E-007	0.0079558	8
	7	3	199546.9	3957.18	-878.1175	1	4053.438	-12.51148	-1.946518E-007	0.0081811	8
	8	3	158578.1	4039.152	-761.506	1	4110.309	-10.67672	-3.889762E-006	0.0089977	8
	9	4	125953.1	4162.917	-620.9993	1	4208.98	-8.48448	7.575314E-007	0.0067606	7
	10	4	100078.1	4209.56	-575.4275	1	4248.707	-7.783827	-5.528483E-008	0.0081038	7
	11	4	79453.13	4256.274	-552.3896	1	4291.969	-7.394653	1.125969E-009	0.0082327	7
	12	5	63140.62	4302.778	-541.6746	1	4336.74	-7.175191	-5.673384E-009	0.0081315	7
	13	5	50203.12	4351.151	-545.6617	1	4385.232	-7.147935	-6.093716E-008	0.0081184	7
	14	5	39890.62	4399.664	-561.0281	1	4435.29	-7.266917	9.725005E-008	0.00805	7
	15	5	31640.63	4451.975	-590.2704	1	4490.935	-7.55258	1.325422E-008	0.0079887	7
	16	6	25171.88	4506.279	-631.1488	1	4550.264	-7.972974	-6.896168E-008	0.0081534	7
	17	6	20015.62	4568.957	-685.9045	1	4620.155	-8.537645	-4.948297E-009	0.0081233	7
	18	6	15890.62	4634.67	-758.8376	1	4696.381	-9.298571	-8.690634E-008	0.0081931	7
	19	7	12609.37	4710.159	-847.0078	1	4785.71	-10.1943	8.556357E-010	0.008215	7
	20	7	10078.13	4789.04	-947.814	1	4881.931	-11.19492	-7.445147E-008	0.0082165	7
	21	7	8015.625	4880.833	-1072.914	1	4997.366	-12.39769	-2.49307E-008	0.0081326	7
	22	8	6328.125	4983.323	-1223.295	1	5131.273	-13.79212	1.319638E-008	0.0079845	7
	23	8	5015.625	5097.388	-1402.459	1	5286.8	-15.38333	-2.555574E-008	0.0081314	7
	24	8	3984.375	5220.958	-1612.529	1	5464.308	-17.16366	1.104878E-007	0.0078392	7
	25	9	3170.956	5360.099	-1861.888	1	5674.266	-19.15522	-7.300597E-008	0.0082085	7
	26	9	2527.573	5510.067	-2153.938	1	5916.104	-21.35101	8.944263E-009	0.0079485	7
	27	9	1976.103	5694.262	-2539.338	1	6234.81	-24.03433	9.976949E-008	0.0080344	7
	28	10	1577.524	5877.462	-2960.814	1	6581.108	-26.73701	-7.319971E-008	0.0082024	7
	29	10	1265.625	6085.477	-3449.978	1	6995.382	-29.54976	1.455226E-008	0.0079718	7
	30	10	998.264	6334.312	-4098.37	1	7544.544	-32.90331	9.936389E-009	0.0079445	7
	31	11	796.875	6601.847	-4841.256	1	8186.706	-36.25328	-4.809441E-008	0.0080667	7
	32	11	627.7902	6927.172	-5794.88	1	9031.409	-39.91394	5.572893E-008	0.0079964	7
	33	11	505.5147	7269.153	-6834.441	1	9977.48	-43.23454	2.406744E-008	0.0076464	6
	34	11	397.9953	7700.465	-8239.519	1	11277.71	-46.93687	8.489383E-010	0.0080629	6
	35	12	315.5048	8187.944	-9900.02	1	12847.29	-50.4071	2.664486E-010	0.0080627	6
	36	12	252.4038	8729.899	-11836.58	1	14707.68	-53.5899	8.816399E-010	0.0080604	6
	37	12	198.6229	9408.183	-14376.87	1	17181.63	-56.79938	5.673406E-010	0.0080584	6
	38	13	158.3615	10163.23	-17315.62	1	20077.9	-59.58963	1.675746E-010	0.0080561	6
	39	13	125.558	11082.3	-21005.65	1	23749.83	-62.18447	4.822235E-010	0.0080586	6
	40	13	100.4464	12124.06	-25340.62	1	28091.63	-64.4315	9.375395E-010	0.0080603	6
	41	14	79.00281	13561.97	-31032.92	1	33866.93	-66.39376	1.018579E-009	0.0080587	6
	42	14	63.3446	15478.62	-37574.57	1	40637.87	-67.61108	6.266587E-010	0.0080539	6
	43	14	49.86702	17697.88	-46158.72	1	49435.24	-69.0225	1.171345E-009	0.0080515	6
	44	15	39.72458	20315.19	-55924.02	1	59499.6	-70.03574	5.679556E-010	0.0080588	6
	45	15	31.6723	23764.83	-67762.76	1	71809.18	-70.6739	7.307434E-010	0.0080528	6
	46	15	24.93351	28841.18	-82905.99	1	87779.37	-70.81834	8.085881E-010	0.0080568	6
	47	16	19.86229	34920.95	-99956.1	1	105880.6	-70.74249	9.205273E-010	0.0080574	5
	48	16	15.83615	42483.09	-121319	1	128542.3	-70.70094	-1.366592E-009	0.0080503	5
	49	16	12.40079	52992.71	-145688.8	1	155027.2	-70.01169	7.396815E-010	0.008054	5
	50	17	9.93114	65598.09	-173367.6	1	185363	-69.27457	3.154414E-010	0.0080496	5
	51	17	7.944915	80663.41	-205609.7	1	220866.3	-68.57926	-1.888928E-010	0.0080557	5
	52	18	6.317385	99214	-244168.4	1	263555.8	-67.88641	-2.150528E-010	0.0080671	5
	53	19	5.008013	122776.4	-290003.9	1	314922.7	-67.05408	-1.188251E-011	0.008053	5
	54	20	3.945707	152274	-344296.9	1	376467.4	-66.14137	1.372655E-010	0.0080487	5
	55	21	3.158693	185896.6	-403817.5	1	444551.6	-65.28112	3.084309E-010	0.0080629	5
	56	23	2.504006	228968.7	-473977.4	1	526385.1	-64.21577	1.705774E-010	0.0080545	5
	57	24	1.998082	278762.5	-552410.7	1	618761.8	-63.22316	8.43723E-011	0.0080315	5
	58	26	1.584686	340806.6	-644099.7	1	728706.8	-62.11575	2.261278E-010	0.0080733	5
	59	28	1.266892	415226.7	-741658.6	1	849982.7	-60.75718	2.258474E-010	0.0080897	5
	60	30	0.999041	505723.4	-859809.9	1	997512	-59.53679	2.475524E-010	0.0080889	5
