EXPLAIN
TAG	EISPOT
TITLE	LABEL	Potentiostatic EIS	Test &Identifier
DATE	LABEL	3/9/2020	Date
TIME	LABEL	20:50:11	Time
NOTES	NOTES	1	&Notes...
	
PSTAT	PSTAT	REF600-11020	Potentiostat
VDC	POTEN	0.00000E+000	T	DC &Voltage (V)
FREQINIT	QUANT	1.00000E+006	Initial Fre&q. (Hz)
FREQFINAL	QUANT	1.00000E+000	Final Fre&q. (Hz)
PTSPERDEC	QUANT	1.00000E+001	Points/&decade
VAC	QUANT	2.50000E+001	AC &Voltage (mV rms)
AREA	QUANT	4.00000E-005	&Area (cm^2)
CONDIT	TWOPARAM	F	5.00000E+000	0.00000E+000	Conditionin&g	Time(s)	E(V)
DELAY	TWOPARAM	T	3.00000E+000	0.00000E+000	Init. De&lay	Time(s)	Stab.(mV/s)
SPEED	SELECTOR	0	&Optimize for:
ZGUESS	QUANT	1.00000E+003	E&stimated Z (ohms)
OCVCURVE	TABLE	12
	Pt	T	Vf	Vm	Ach	Over
	#	s	V vs. Ref.	V	V	bits
	0	0.258333	2.18189E-003	2.18189E-003	5.72763E-004	...........
	1	0.516667	2.18160E-003	2.16687E-003	5.80897E-004	...........
	2	0.775	2.17983E-003	2.15232E-003	5.77797E-004	...........
	3	1.03333	2.17479E-003	2.13720E-003	5.80063E-004	...........
	4	1.29167	2.16564E-003	2.12314E-003	5.79063E-004	...........
	5	1.55	2.15323E-003	2.10845E-003	5.79897E-004	...........
	6	1.80833	2.13916E-003	2.09638E-003	5.76730E-004	...........
	7	2.06667	2.12484E-003	2.08756E-003	5.74530E-004	...........
	8	2.325	2.11127E-003	2.07526E-003	5.79597E-004	...........
	9	2.58333	2.09886E-003	2.06385E-003	5.75963E-004	...........
	10	2.84167	2.08728E-003	2.05163E-003	5.72230E-004	...........
	11	3.1	2.07595E-003	2.04204E-003	5.80863E-004	...........
EOC	QUANT	0.0020759	Open Circuit (V)
PSTATMODEL	IQUANT	4	Pstat Model
PSTATSECTION	LABEL	REF600-11020	Pstat Section
PSTATSERIALNO	LABEL	11020	Pstat Serial Number
CTRLMODE	IQUANT	1	Control Mode
IESTAB	IQUANT	0	I/E Stability
CASPEED	IQUANT	1	Control Amp Speed
CONVENTION	IQUANT	1	Current Convention
ICHRANGE	IQUANT	2	Ich Range
ICHRANGEMODE	TOGGLE	F	Ich Auto Range
ICHOFFSETENABLE	TOGGLE	T	Ich Offset Enable
ICHOFFSET	QUANT	0	Ich Offset (V)
ICHFILTER	IQUANT	3	Ich Filter
VCHRANGE	IQUANT	2	Vch Range
VCHRANGEMODE	TOGGLE	F	Vch Auto Range
VCHOFFSETENABLE	TOGGLE	T	Vch Offset Enable
VCHOFFSET	QUANT	0	Vch Offset (V)
VCHFILTER	IQUANT	3	Vch Filter
ACHRANGE	IQUANT	2	Ach Range
ACHOFFSETENABLE	TOGGLE	F	Ach Offset Enable
ACHOFFSET	QUANT	0	Ach Offset (V)
ACHFILTER	IQUANT	3	Ach Filter
IERANGELOWERLIMIT	IQUANT	1	I/E Range Lower Limit
IERANGEMODE	TOGGLE	F	I/E AutoRange
IERANGE	IQUANT	6	I/E Range
POSFEEDENABLE	TOGGLE	F	Positive Feedback IR Comp
POSFEEDRESISTANCE	QUANT	0	Positive Feedback Resistance (ohm)
ACHSELECT	IQUANT	0	Ach Select
CABLEID	IQUANT	14	Cable ID
DCCALDATE	LABEL	2/27/2020	DC Calibration Date
ACCALDATE	LABEL	2/27/2020	AC Calibration Date
THERMOSELECT	IQUANT	1	Thermo Select
FRAMEWORKVERSION	QUANT	6.33	Framework Version
INSTRUMENTVERSION	LABEL	3.50	Instrument Version
ZCURVE	TABLE
	Pt	Time	Freq	Zreal	Zimag	Zsig	Zmod	Zphz	Idc	Vdc	IERange
	#	s	Hz	ohm	ohm	V	ohm	°	A	V	#
	0	1	1000078	1913.613	-1610.482	1	2501.114	-40.08371	7.222929E-008	0.0043553	8
	1	1	794390.6	2247.122	-1629.423	1	2775.712	-35.94646	2.36643E-008	0.0040163	8
	2	2	630984.4	2577.258	-1578.125	1	3022.042	-31.48027	8.567672E-008	0.0038278	8
	3	2	501234.4	2870.947	-1476.325	1	3228.292	-27.21356	9.118875E-009	0.0037459	8
	4	2	398109.4	3135.44	-1342.692	1	3410.837	-23.1821	1.739471E-008	0.0036819	8
	5	3	316265.6	3344.161	-1191.906	1	3550.219	-19.61679	4.687262E-008	0.0036668	8
	6	3	251203.1	3504.651	-1046.526	1	3657.567	-16.62618	3.342753E-008	0.0036522	8
	7	3	199546.9	3624.391	-911.1108	1	3737.156	-14.11081	2.589535E-008	0.0036513	8
	8	4	158578.1	3719.633	-797.4448	1	3804.154	-12.10036	3.198711E-008	0.0036578	8
	9	4	125953.1	3830.292	-624.4659	1	3880.863	-9.259665	8.711685E-010	0.0036003	7
	10	4	100078.1	3871.093	-558.2267	1	3911.135	-8.205709	-1.28363E-009	0.0035861	7
	11	5	79453.13	3917.32	-517.8195	1	3951.396	-7.530112	-5.647769E-010	0.003582	7
	12	5	63140.62	3959.572	-490.8537	1	3989.881	-7.066696	-7.788563E-010	0.0035794	7
	13	5	50203.12	3999.347	-475.9676	1	4027.57	-6.786925	-3.522345E-010	0.003584	7
	14	6	39890.62	4038.666	-473.6875	1	4066.35	-6.689551	7.748996E-011	0.0035846	7
	15	6	31640.63	4078.584	-483.8344	1	4107.182	-6.765268	8.463587E-010	0.0035861	7
	16	6	25171.88	4119.84	-506.0396	1	4150.802	-7.00256	9.057241E-010	0.0035839	7
	17	6	20015.62	4163.309	-540.4449	1	4198.241	-7.396284	7.604386E-010	0.0035815	7
	18	7	15890.62	4210.106	-588.236	1	4251.002	-7.953874	1.900608E-010	0.0035787	7
	19	7	12609.37	4261.25	-650.7277	1	4310.649	-8.682457	1.035488E-009	0.003577	7
	20	7	10078.13	4314.732	-726.8217	1	4375.521	-9.56178	3.119634E-010	0.0035817	7
	21	8	8015.625	4373.654	-822.4382	1	4450.31	-10.64975	2.447453E-010	0.0035713	7
	22	8	6328.125	4440.136	-944.8256	1	4539.549	-12.01291	1.260066E-010	0.0035738	7
	23	8	5015.625	4511.53	-1092.149	1	4641.841	-13.60834	8.823545E-010	0.003574	7
	24	9	3984.375	4589.054	-1272.169	1	4762.125	-15.49434	1.246474E-009	0.0035805	7
	25	9	3170.956	4674.687	-1489.738	1	4906.324	-17.67613	7.308099E-010	0.003577	7
	26	9	2527.573	4769.394	-1752.285	1	5081.104	-20.17343	1.06836E-009	0.0035728	7
	27	10	1976.103	4886.891	-2104.718	1	5320.859	-23.30089	-1.611061E-011	0.0035721	7
	28	10	1577.524	5011.141	-2501.446	1	5600.782	-26.52731	9.653002E-010	0.0035716	7
	29	10	1265.625	5150.846	-2970.355	1	5945.941	-29.9709	3.683465E-010	0.0035721	7
	30	11	998.264	5327.563	-3587.327	1	6422.76	-33.95444	1.325048E-009	0.0035666	7
	31	11	796.875	5526.772	-4305.5	1	7005.893	-37.91952	2.477965E-009	0.0035717	7
	32	11	627.7902	5781.71	-5227.963	1	7794.855	-42.12066	2.753735E-009	0.0035694	7
	33	12	505.5147	6060.224	-6239.312	1	8698.007	-45.8342	1.943823E-009	0.0035652	7
	34	12	397.9953	6426.785	-7600.842	1	9953.71	-49.78428	3.231677E-009	0.0035812	7
	35	12	315.5048	6865.288	-9206.956	1	11484.78	-53.28946	5.767035E-010	0.003631	6
	36	13	252.4038	7364.53	-11078.5	1	13302.98	-56.38567	5.682724E-010	0.0036321	6
	37	13	198.6229	8010.499	-13518.36	1	15713.5	-59.35052	4.315259E-010	0.0036357	6
	38	13	158.3615	8744.884	-16325.1	1	18519.77	-61.82333	5.551261E-010	0.0036303	6
	39	14	125.558	9652.71	-19820.1	1	22045.66	-64.03318	5.430756E-010	0.0036353	6
	40	14	100.4464	10705.95	-23898.91	1	26187.32	-65.86913	4.776781E-010	0.0036282	6
	41	14	79.00281	12092.09	-29252.26	1	31653.01	-67.54111	3.514095E-010	0.0036266	6
	42	15	63.3446	13665.19	-35251.28	1	37807.27	-68.81113	2.330575E-010	0.0036257	6
	43	15	49.86702	15782.17	-43157.32	1	45952.49	-69.91308	3.500986E-010	0.0036226	6
	44	15	39.72458	18313.18	-52313.77	1	55426.55	-70.70667	4.588888E-010	0.0036287	6
	45	16	31.6723	21477.3	-63346.39	1	66888.27	-71.27101	3.245255E-010	0.0036236	6
	46	16	24.93351	25780.11	-77504.45	1	81679.58	-71.60146	5.877778E-010	0.003622	6
	47	16	19.86229	31022.87	-93779.34	1	98777.4	-71.69542	5.433517E-010	0.0036251	6
	48	16	15.83615	37767.41	-113151.4	1	119287.9	-71.54214	4.267086E-010	0.0036258	5
	49	17	12.40079	47269.25	-138360	1	146211.7	-71.13779	1.037847E-009	0.0036232	5
	50	17	9.93114	58514.15	-165384.5	1	175430.7	-70.51588	1.084814E-009	0.0036236	5
	51	17	7.944915	72728.68	-197502	1	210467.4	-69.78413	3.809986E-010	0.0036239	5
	52	18	6.317385	91562.61	-235692.6	1	252853.2	-68.76969	1.460905E-010	0.0036322	5
	53	19	5.008013	115985.4	-280377.9	1	303421.1	-67.52632	3.175847E-010	0.0036344	5
	54	20	3.945707	147654.7	-333090.2	1	364350	-66.0929	3.356775E-010	0.0036187	5
	55	20	3.158693	183844	-387983.8	1	429336.7	-64.64632	1.9602E-010	0.0036432	5
	56	21	2.504006	230143.8	-452250.5	1	507441.3	-63.02911	-5.390595E-011	0.0036331	5
	57	23	1.998082	282274.1	-519536.6	1	591267.3	-61.48392	6.576827E-011	0.0036416	5
	58	24	1.584686	346644.8	-596855.6	1	690216.8	-59.85262	1.564541E-010	0.0036762	5
	59	26	1.266892	415146.3	-679284.9	1	796099.5	-58.56873	1.442968E-010	0.0036547	5
	60	29	0.999041	497056.1	-774237.4	1	920058.9	-57.29976	1.36975E-010	0.003635	5
