EXPLAIN
TAG	EISPOT
TITLE	LABEL	Potentiostatic EIS	Test &Identifier
DATE	LABEL	6/1/2020	Date
TIME	LABEL	13:25:19	Time
NOTES	NOTES	1	&Notes...
	
PSTAT	PSTAT	REF600-11020	Potentiostat
VDC	POTEN	0.00000E+000	T	DC &Voltage (V)
FREQINIT	QUANT	1.00000E+006	Initial Fre&q. (Hz)
FREQFINAL	QUANT	1.00000E+000	Final Fre&q. (Hz)
PTSPERDEC	QUANT	1.00000E+001	Points/&decade
VAC	QUANT	2.50000E+001	AC &Voltage (mV rms)
AREA	QUANT	4.00000E-004	&Area (cm^2)
CONDIT	TWOPARAM	F	5.00000E+000	0.00000E+000	Conditionin&g	Time(s)	E(V)
DELAY	TWOPARAM	T	3.00000E+000	0.00000E+000	Init. De&lay	Time(s)	Stab.(mV/s)
SPEED	SELECTOR	0	&Optimize for:
ZGUESS	QUANT	1.00000E+003	E&stimated Z (ohms)
OCVCURVE	TABLE	12
	Pt	T	Vf	Vm	Ach	Over
	#	s	V vs. Ref.	V	V	bits
	0	0.258333	6.60508E-002	6.60508E-002	6.02863E-004	...........
	1	0.516667	6.60508E-002	6.60502E-002	5.93096E-004	...........
	2	0.775	6.60508E-002	6.60499E-002	5.93963E-004	...........
	3	1.03333	6.60505E-002	6.60464E-002	5.95030E-004	...........
	4	1.29167	6.60499E-002	6.60436E-002	5.96096E-004	...........
	5	1.55	6.60485E-002	6.60408E-002	5.96030E-004	...........
	6	1.80833	6.60463E-002	6.60308E-002	5.96130E-004	...........
	7	2.06667	6.60431E-002	6.60302E-002	5.95896E-004	...........
	8	2.325	6.60389E-002	6.60260E-002	5.92863E-004	...........
	9	2.58333	6.60343E-002	6.60197E-002	5.92330E-004	...........
	10	2.84167	6.60298E-002	6.60135E-002	5.92663E-004	...........
	11	3.1	6.60251E-002	6.60133E-002	5.96630E-004	...........
EOC	QUANT	0.0660251	Open Circuit (V)
PSTATMODEL	IQUANT	4	Pstat Model
PSTATSECTION	LABEL	REF600-11020	Pstat Section
PSTATSERIALNO	LABEL	11020	Pstat Serial Number
CTRLMODE	IQUANT	1	Control Mode
IESTAB	IQUANT	0	I/E Stability
CASPEED	IQUANT	1	Control Amp Speed
CONVENTION	IQUANT	1	Current Convention
ICHRANGE	IQUANT	2	Ich Range
ICHRANGEMODE	TOGGLE	F	Ich Auto Range
ICHOFFSETENABLE	TOGGLE	T	Ich Offset Enable
ICHOFFSET	QUANT	0	Ich Offset (V)
ICHFILTER	IQUANT	3	Ich Filter
VCHRANGE	IQUANT	2	Vch Range
VCHRANGEMODE	TOGGLE	F	Vch Auto Range
VCHOFFSETENABLE	TOGGLE	T	Vch Offset Enable
VCHOFFSET	QUANT	0	Vch Offset (V)
VCHFILTER	IQUANT	3	Vch Filter
ACHRANGE	IQUANT	2	Ach Range
ACHOFFSETENABLE	TOGGLE	F	Ach Offset Enable
ACHOFFSET	QUANT	0	Ach Offset (V)
ACHFILTER	IQUANT	3	Ach Filter
IERANGELOWERLIMIT	IQUANT	1	I/E Range Lower Limit
IERANGEMODE	TOGGLE	F	I/E AutoRange
IERANGE	IQUANT	8	I/E Range
POSFEEDENABLE	TOGGLE	F	Positive Feedback IR Comp
POSFEEDRESISTANCE	QUANT	0	Positive Feedback Resistance (ohm)
ACHSELECT	IQUANT	0	Ach Select
CABLEID	IQUANT	14	Cable ID
DCCALDATE	LABEL	2/27/2020	DC Calibration Date
ACCALDATE	LABEL	2/27/2020	AC Calibration Date
THERMOSELECT	IQUANT	1	Thermo Select
FRAMEWORKVERSION	QUANT	6.33	Framework Version
INSTRUMENTVERSION	LABEL	3.50	Instrument Version
ZCURVE	TABLE
	Pt	Time	Freq	Zreal	Zimag	Zsig	Zmod	Zphz	Idc	Vdc	IERange
	#	s	Hz	ohm	ohm	V	ohm	°	A	V	#
	0	1	1000078	1739.222	-2147.715	1	2763.615	-50.99941	4.417218E-008	0.0683605	8
	1	1	794390.6	2113.02	-2382.141	1	3184.25	-48.42615	4.451883E-008	0.0680138	8
	2	1	630984.4	2554.722	-2589.063	1	3637.286	-45.38251	4.580421E-008	0.0678767	8
	3	2	501234.4	3043.661	-2755.754	1	4105.856	-42.15793	3.458597E-008	0.0677561	8
	4	2	398109.4	3586.059	-2863.625	1	4589.136	-38.60889	3.831732E-008	0.0677054	8
	5	2	316265.6	4143.848	-2892.978	1	5053.79	-34.92036	5.923268E-008	0.0676756	8
	6	3	251203.1	4700.983	-2846.875	1	5495.811	-31.19873	6.550015E-008	0.0676597	8
	7	3	199546.9	5230	-2731.22	1	5900.209	-27.57455	5.988764E-008	0.0676576	8
	8	3	158578.1	5706.25	-2548.755	1	6249.595	-24.06842	3.70665E-008	0.0676686	8
	9	4	125953.1	6197.011	-2241.793	1	6590.037	-19.88779	1.282412E-009	0.067618	7
	10	4	100078.1	6516.68	-2025.543	1	6824.218	-17.26652	1.841785E-009	0.0675889	7
	11	5	79453.13	6801.814	-1817.388	1	7040.424	-14.95949	1.92272E-009	0.0675829	7
	12	5	63140.62	7034.658	-1618.733	1	7218.498	-12.95865	2.853309E-009	0.0675808	7
	13	5	50203.12	7223.949	-1436.609	1	7365.411	-11.24753	2.041791E-009	0.0675744	7
	14	6	39890.62	7378.469	-1275.634	1	7487.926	-9.80868	2.750023E-009	0.0675636	7
	15	6	31640.63	7503.537	-1139.942	1	7589.633	-8.638356	1.927892E-009	0.0675678	7
	16	6	25171.88	7604.321	-1030.287	1	7673.799	-7.715851	1.700042E-009	0.0675643	7
	17	6	20015.62	7692.415	-948.6548	1	7750.689	-7.030413	2.753148E-009	0.0675661	7
	18	7	15890.62	7765.18	-892.019	1	7816.247	-6.553084	2.63953E-009	0.0675667	7
	19	7	12609.37	7830.08	-862.5704	1	7877.447	-6.28642	3.219158E-009	0.067567	7
	20	7	10078.13	7886.475	-858.2842	1	7933.041	-6.21105	3.116628E-009	0.0675595	7
	21	8	8015.625	7941.266	-882.5457	1	7990.156	-6.341495	3.366986E-009	0.0675628	7
	22	8	6328.125	7997.621	-938.0404	1	8052.444	-6.689654	2.328241E-009	0.0675517	7
	23	8	5015.625	8055.475	-1026.696	1	8120.639	-7.263372	2.291364E-009	0.0675554	7
	24	9	3984.375	8113.013	-1150.135	1	8194.131	-8.068725	2.080861E-009	0.0675529	7
	25	9	3170.956	8175.959	-1313.488	1	8280.795	-9.126724	3.29041E-009	0.067565	7
	26	9	2527.573	8246.055	-1524.468	1	8385.787	-10.47415	2.729535E-009	0.0675587	7
	27	10	1976.103	8328.905	-1814.105	1	8524.18	-12.28759	2.555159E-009	0.0675537	7
	28	10	1577.524	8416.78	-2150.251	1	8687.104	-14.33094	3.288523E-009	0.0675564	7
	29	10	1265.625	8517.771	-2554.006	1	8892.433	-16.69107	3.379948E-009	0.0675587	7
	30	11	998.264	8648.892	-3078.782	1	9180.535	-19.59441	-1.403452E-010	0.067613	6
	31	11	796.875	8794.544	-3714.062	1	9546.64	-22.89503	-4.738254E-010	0.0676081	6
	32	11	627.7902	8977.896	-4540.302	1	10060.66	-26.82664	-1.582347E-010	0.0676035	6
	33	12	505.5147	9180.284	-5462.822	1	10682.7	-30.7552	-4.311696E-010	0.0676094	6
	34	12	397.9953	9455.481	-6707.873	1	11593.17	-35.35251	5.809546E-010	0.0676283	6
	35	12	315.5048	9795.87	-8199.359	1	12774.53	-39.93008	5.965304E-010	0.0676281	6
	36	13	252.4038	10207.47	-9949.23	1	14254.11	-44.26599	5.707989E-010	0.0676238	6
	37	13	198.6229	10775.27	-12245.56	1	16311.35	-48.65438	5.114167E-010	0.0676236	6
	38	13	158.3615	11466.74	-14894.34	1	18797.01	-52.40833	5.138273E-010	0.0676244	6
	39	14	125.558	12385.87	-18183.57	1	22001.18	-55.73898	5.814471E-010	0.0676211	6
	40	14	100.4464	13525.97	-21992.73	1	25819.22	-58.40764	5.529113E-010	0.0676209	6
	41	14	79.00281	15119.03	-26926.85	1	30881.07	-60.68643	4.42828E-010	0.0676177	6
	42	15	63.3446	17010.3	-32352.89	1	36552.15	-62.26579	4.030803E-010	0.06762	6
	43	15	49.86702	19638.45	-39338.45	1	43967.97	-63.47081	5.024648E-010	0.0676198	6
	44	15	39.72458	22834.38	-47197.92	1	52431.41	-64.18227	4.932736E-010	0.0676244	6
	45	16	31.6723	26841.38	-56382.77	1	62445.79	-64.54292	2.035251E-010	0.067623	6
	46	16	24.93351	32139.97	-67687.48	1	74930.45	-64.60028	7.812399E-010	0.0676208	6
	47	16	19.86229	38411.3	-80212.15	1	88934.9	-64.41158	6.790711E-010	0.0676256	6
	48	16	15.83615	46006.29	-94519.69	1	105121.6	-64.04607	4.500695E-010	0.067625	5
	49	17	12.40079	56010.21	-112435.2	1	125613.8	-63.51956	1.455991E-009	0.0676217	5
	50	17	9.93114	66720.41	-131053.6	1	147060	-63.019	1.392482E-009	0.0676303	5
	51	17	7.944915	79487.45	-152994.9	1	172411.4	-62.54617	1.413653E-010	0.0676195	5
	52	18	6.317385	94930.88	-178656.8	1	202311.9	-62.01566	2.087599E-010	0.0676235	5
	53	19	5.008013	113596.9	-208674.9	1	237591	-61.43734	4.762191E-010	0.067633	5
	54	20	3.945707	136768.3	-244432.5	1	280094.3	-60.77151	3.34413E-010	0.0676178	5
	55	20	3.158693	162022.5	-282497.6	1	325662.7	-60.16418	3.095952E-010	0.0676352	5
	56	21	2.504006	193945.1	-327892.2	1	380956.7	-59.39609	-4.405862E-011	0.0676233	5
	57	23	1.998082	229455.7	-377229.3	1	441533.6	-58.68928	4.532065E-011	0.0676215	5
	58	24	1.584686	274225.8	-434697.3	1	513966.5	-57.7545	1.793118E-010	0.0676637	5
	59	26	1.266892	323311.3	-498123.3	1	593849.3	-57.01406	1.850778E-010	0.0676462	5
	60	29	0.999041	383519.4	-571910.8	1	688599.3	-56.15447	1.827621E-010	0.0676299	5
