EXPLAIN
TAG	EISPOT
TITLE	LABEL	Potentiostatic EIS	Test &Identifier
DATE	LABEL	5/26/2020	Date
TIME	LABEL	18:21:43	Time
NOTES	NOTES	1	&Notes...
	
PSTAT	PSTAT	REF600-11020	Potentiostat
VDC	POTEN	0.00000E+000	T	DC &Voltage (V)
FREQINIT	QUANT	1.00000E+006	Initial Fre&q. (Hz)
FREQFINAL	QUANT	1.00000E+000	Final Fre&q. (Hz)
PTSPERDEC	QUANT	1.00000E+001	Points/&decade
VAC	QUANT	2.50000E+001	AC &Voltage (mV rms)
AREA	QUANT	5.00000E-004	&Area (cm^2)
CONDIT	TWOPARAM	F	5.00000E+000	0.00000E+000	Conditionin&g	Time(s)	E(V)
DELAY	TWOPARAM	T	3.00000E+000	0.00000E+000	Init. De&lay	Time(s)	Stab.(mV/s)
SPEED	SELECTOR	0	&Optimize for:
ZGUESS	QUANT	1.00000E+003	E&stimated Z (ohms)
OCVCURVE	TABLE	12
	Pt	T	Vf	Vm	Ach	Over
	#	s	V vs. Ref.	V	V	bits
	0	0.258333	1.08703E-001	1.08703E-001	5.87196E-004	...........
	1	0.516667	1.08703E-001	1.08691E-001	5.88930E-004	...........
	2	0.775	1.08701E-001	1.08673E-001	5.85597E-004	...........
	3	1.03333	1.08697E-001	1.08660E-001	5.93763E-004	...........
	4	1.29167	1.08688E-001	1.08646E-001	5.87063E-004	...........
	5	1.55	1.08676E-001	1.08633E-001	5.82197E-004	...........
	6	1.80833	1.08662E-001	1.08623E-001	5.90430E-004	...........
	7	2.06667	1.08648E-001	1.08610E-001	5.88930E-004	...........
	8	2.325	1.08635E-001	1.08599E-001	5.90663E-004	...........
	9	2.58333	1.08623E-001	1.08589E-001	5.83697E-004	...........
	10	2.84167	1.08612E-001	1.08576E-001	5.85830E-004	...........
	11	3.1	1.08600E-001	1.08560E-001	5.87763E-004	...........
EOC	QUANT	0.1086002	Open Circuit (V)
PSTATMODEL	IQUANT	4	Pstat Model
PSTATSECTION	LABEL	REF600-11020	Pstat Section
PSTATSERIALNO	LABEL	11020	Pstat Serial Number
CTRLMODE	IQUANT	1	Control Mode
IESTAB	IQUANT	0	I/E Stability
CASPEED	IQUANT	1	Control Amp Speed
CONVENTION	IQUANT	1	Current Convention
ICHRANGE	IQUANT	2	Ich Range
ICHRANGEMODE	TOGGLE	F	Ich Auto Range
ICHOFFSETENABLE	TOGGLE	T	Ich Offset Enable
ICHOFFSET	QUANT	0	Ich Offset (V)
ICHFILTER	IQUANT	3	Ich Filter
VCHRANGE	IQUANT	2	Vch Range
VCHRANGEMODE	TOGGLE	F	Vch Auto Range
VCHOFFSETENABLE	TOGGLE	T	Vch Offset Enable
VCHOFFSET	QUANT	0	Vch Offset (V)
VCHFILTER	IQUANT	3	Vch Filter
ACHRANGE	IQUANT	2	Ach Range
ACHOFFSETENABLE	TOGGLE	F	Ach Offset Enable
ACHOFFSET	QUANT	0	Ach Offset (V)
ACHFILTER	IQUANT	3	Ach Filter
IERANGELOWERLIMIT	IQUANT	1	I/E Range Lower Limit
IERANGEMODE	TOGGLE	F	I/E AutoRange
IERANGE	IQUANT	8	I/E Range
POSFEEDENABLE	TOGGLE	F	Positive Feedback IR Comp
POSFEEDRESISTANCE	QUANT	0	Positive Feedback Resistance (ohm)
ACHSELECT	IQUANT	0	Ach Select
CABLEID	IQUANT	14	Cable ID
DCCALDATE	LABEL	2/27/2020	DC Calibration Date
ACCALDATE	LABEL	2/27/2020	AC Calibration Date
THERMOSELECT	IQUANT	1	Thermo Select
FRAMEWORKVERSION	QUANT	6.33	Framework Version
INSTRUMENTVERSION	LABEL	3.50	Instrument Version
ZCURVE	TABLE
	Pt	Time	Freq	Zreal	Zimag	Zsig	Zmod	Zphz	Idc	Vdc	IERange
	#	s	Hz	ohm	ohm	V	ohm	°	A	V	#
	0	1	1000078	1919.359	-1511.56	1	2443.103	-38.22161	5.553479E-008	0.1107343	8
	1	1	794390.6	2199.478	-1545.458	1	2688.149	-35.09371	5.088271E-008	0.1104747	8
	2	1	630984.4	2476.833	-1550.001	1	2921.85	-32.03832	5.338361E-008	0.1103306	8
	3	2	501234.4	2744.418	-1528.013	1	3141.123	-29.1078	1.723579E-008	0.1102862	8
	4	2	398109.4	2995.261	-1488.418	1	3344.694	-26.4239	5.415432E-008	0.1102241	8
	5	2	316265.6	3224.519	-1440.326	1	3531.58	-24.06933	5.931421E-008	0.1102056	8
	6	3	251203.1	3439.869	-1389.501	1	3709.907	-21.99576	2.414471E-008	0.1101847	8
	7	3	199546.9	3631.035	-1335.48	1	3868.84	-20.19332	1.570064E-008	0.1102069	8
	8	3	158578.1	3810.341	-1290.742	1	4023.023	-18.71367	1.448994E-008	0.1102177	8
	9	4	125953.1	4015.046	-1200.372	1	4190.643	-16.64501	8.153702E-010	0.1101374	7
	10	4	100078.1	4158.895	-1181.195	1	4323.382	-15.85542	1.091743E-009	0.1101187	7
	11	4	79453.13	4310.521	-1182.989	1	4469.906	-15.34654	1.360493E-009	0.1101184	7
	12	5	63140.62	4461.115	-1192.089	1	4617.643	-14.9609	1.06206E-009	0.1101141	7
	13	5	50203.12	4612.273	-1211.268	1	4768.672	-14.71465	1.148001E-009	0.1101126	7
	14	5	39890.62	4764.387	-1240.769	1	4923.301	-14.59706	4.135648E-010	0.110101	7
	15	6	31640.63	4923.521	-1282.766	1	5087.883	-14.6031	6.026714E-010	0.1101067	7
	16	6	25171.88	5086.085	-1336.97	1	5258.874	-14.72804	1.59813E-009	0.1101041	7
	17	6	20015.62	5255.966	-1402.228	1	5439.8	-14.9379	1.6732E-009	0.1101117	7
	18	6	15890.62	5435.906	-1479.878	1	5633.748	-15.2292	6.652651E-010	0.1100982	7
	19	7	12609.37	5626.174	-1570.792	1	5841.337	-15.59939	1.310663E-009	0.110099	7
	20	7	10078.13	5817.895	-1668.976	1	6052.551	-16.00657	1.295018E-009	0.1100987	7
	21	7	8015.625	6022.338	-1785.699	1	6281.502	-16.51575	2.273397E-009	0.1100989	7
	22	8	6328.125	6240.494	-1923.12	1	6530.096	-17.12762	2.029142E-009	0.110103	7
	23	8	5015.625	6462.923	-2084.101	1	6790.644	-17.87297	2.065093E-009	0.1101029	7
	24	8	3984.375	6687.583	-2271.707	1	7062.891	-18.76212	1.936485E-009	0.1101015	7
	25	9	3170.956	6916.405	-2496.019	1	7353.011	-19.84369	2.543736E-009	0.1101022	7
	26	9	2527.573	7148.353	-2765.814	1	7664.769	-21.15227	2.934894E-009	0.1101028	7
	27	9	1976.103	7406.647	-3128.524	1	8040.279	-22.89891	3.028657E-009	0.110102	7
	28	10	1577.524	7650.611	-3538.536	1	8429.299	-24.82134	1.860527E-009	0.1100957	7
	29	10	1265.625	7897.584	-4031.395	1	8867.016	-27.04246	2.822998E-009	0.1100985	7
	30	10	998.264	8183.138	-4673.554	1	9423.686	-29.73155	-1.141291E-010	0.1101442	6
	31	11	796.875	8465.228	-5450.984	1	10068.43	-32.77856	-2.08021E-011	0.110152	6
	32	11	627.7902	8793.004	-6470.052	1	10916.89	-36.34631	-1.884505E-010	0.1101478	6
	33	11	505.5147	9117.445	-7615.221	1	11879.37	-39.86986	-3.377181E-010	0.1101436	6
	34	12	397.9953	9516.6	-9173.123	1	13217.86	-43.94715	3.453018E-010	0.1101664	6
	35	12	315.5048	9963.9	-11054.32	1	14882.11	-47.96982	3.360064E-010	0.1101647	6
	36	12	252.4038	10461.85	-13279.58	1	16905.55	-51.76842	3.029975E-010	0.1101602	6
	37	12	198.6229	11093.15	-16232.89	1	19661.25	-55.65226	3.006537E-010	0.1101615	6
	38	13	158.3615	11808.65	-19682.44	1	22953.05	-59.03798	2.475077E-010	0.1101585	6
	39	13	125.558	12696.53	-24034.02	1	27181.54	-62.1537	2.418472E-010	0.1101593	6
	40	13	100.4464	13747.86	-29170.01	1	32247.37	-64.76544	1.780983E-010	0.1101603	6
	41	14	79.00281	15158.74	-35977.25	1	39040.36	-67.15225	2.050319E-010	0.1101585	6
	42	14	63.3446	16791.68	-43660.98	1	46778.64	-68.96363	1.492924E-010	0.1101535	6
	43	14	49.86702	19041.15	-53865.78	1	57132.19	-70.53188	4.301605E-011	0.1101571	6
	44	15	39.72458	21791.86	-65743.42	1	69260.98	-71.66128	4.250938E-010	0.1101643	6
	45	15	31.6723	25317.11	-80167.14	1	84069.77	-72.47367	3.633825E-010	0.1101614	6
	46	16	24.93351	30186.18	-98769	1	103278.8	-73.00558	-1.45802E-011	0.1101565	6
	47	16	19.86229	36274.55	-120238.3	1	125591	-73.21202	5.646027E-011	0.1101676	5
	48	16	15.83615	44185.74	-146088.5	1	152624.5	-73.1716	-3.441848E-010	0.1101659	5
	49	16	12.40079	55525.25	-179856.9	1	188232.8	-72.84355	-5.335662E-010	0.1101727	5
	50	17	9.93114	69179.01	-216479.2	1	227264.1	-72.27798	-5.765366E-010	0.1101641	5
	51	17	7.944915	86995.68	-259949.8	1	274120.7	-71.49649	9.933206E-011	0.1101623	5
	52	17	6.317385	110901.7	-312499.7	1	331595	-70.46095	-2.388235E-010	0.1101743	5
	53	18	5.008013	142712.4	-374664.8	1	400924.6	-69.14782	-2.85693E-010	0.1101545	5
	54	19	3.945707	185353.3	-447213.8	1	484103.3	-67.48783	4.543222E-011	0.1101602	5
	55	20	3.158693	235924	-524696.6	1	575296.9	-65.78947	-1.780791E-010	0.1101462	5
	56	21	2.504006	301538.2	-612715.4	1	682894.9	-63.79662	-2.412535E-011	0.1101397	5
	57	22	1.998082	379071	-706277.2	1	801574.9	-61.77679	1.02325E-010	0.1101782	5
	58	24	1.584686	473022.4	-806635.3	1	935099.3	-59.61203	5.305942E-011	0.1101349	5
	59	26	1.266892	582244.1	-910918.3	1	1081101	-57.41395	-9.872691E-012	0.1101064	4
	60	28	0.999041	710984.1	-1028009	1	1249921	-55.33178	-5.990747E-011	0.1101007	4
