EXPLAIN
TAG	EISPOT
TITLE	LABEL	Potentiostatic EIS	Test &Identifier
DATE	LABEL	3/9/2020	Date
TIME	LABEL	20:43:30	Time
NOTES	NOTES	1	&Notes...
	
PSTAT	PSTAT	REF600-11020	Potentiostat
VDC	POTEN	0.00000E+000	T	DC &Voltage (V)
FREQINIT	QUANT	1.00000E+006	Initial Fre&q. (Hz)
FREQFINAL	QUANT	1.00000E+000	Final Fre&q. (Hz)
PTSPERDEC	QUANT	1.00000E+001	Points/&decade
VAC	QUANT	2.50000E+001	AC &Voltage (mV rms)
AREA	QUANT	4.00000E-005	&Area (cm^2)
CONDIT	TWOPARAM	F	5.00000E+000	0.00000E+000	Conditionin&g	Time(s)	E(V)
DELAY	TWOPARAM	T	3.00000E+000	0.00000E+000	Init. De&lay	Time(s)	Stab.(mV/s)
SPEED	SELECTOR	0	&Optimize for:
ZGUESS	QUANT	1.00000E+003	E&stimated Z (ohms)
OCVCURVE	TABLE	12
	Pt	T	Vf	Vm	Ach	Over
	#	s	V vs. Ref.	V	V	bits
	0	0.258333	4.57868E-002	4.57868E-002	5.74063E-004	...........
	1	0.516667	4.57860E-002	4.57450E-002	5.76497E-004	...........
	2	0.775	4.57812E-002	4.57092E-002	5.79363E-004	...........
	3	1.03333	4.57677E-002	4.56723E-002	5.75030E-004	...........
	4	1.29167	4.57438E-002	4.56349E-002	5.81630E-004	...........
	5	1.55	4.57120E-002	4.55988E-002	5.78397E-004	...........
	6	1.80833	4.56762E-002	4.55643E-002	5.74597E-004	...........
	7	2.06667	4.56393E-002	4.55297E-002	5.77997E-004	...........
	8	2.325	4.56029E-002	4.54984E-002	5.75363E-004	...........
	9	2.58333	4.55677E-002	4.54661E-002	5.78997E-004	...........
	10	2.84167	4.55338E-002	4.54334E-002	5.74963E-004	...........
	11	3.1	4.55009E-002	4.54083E-002	5.78197E-004	...........
EOC	QUANT	0.0455009	Open Circuit (V)
PSTATMODEL	IQUANT	4	Pstat Model
PSTATSECTION	LABEL	REF600-11020	Pstat Section
PSTATSERIALNO	LABEL	11020	Pstat Serial Number
CTRLMODE	IQUANT	1	Control Mode
IESTAB	IQUANT	0	I/E Stability
CASPEED	IQUANT	1	Control Amp Speed
CONVENTION	IQUANT	1	Current Convention
ICHRANGE	IQUANT	2	Ich Range
ICHRANGEMODE	TOGGLE	F	Ich Auto Range
ICHOFFSETENABLE	TOGGLE	T	Ich Offset Enable
ICHOFFSET	QUANT	0	Ich Offset (V)
ICHFILTER	IQUANT	3	Ich Filter
VCHRANGE	IQUANT	2	Vch Range
VCHRANGEMODE	TOGGLE	F	Vch Auto Range
VCHOFFSETENABLE	TOGGLE	T	Vch Offset Enable
VCHOFFSET	QUANT	0	Vch Offset (V)
VCHFILTER	IQUANT	3	Vch Filter
ACHRANGE	IQUANT	2	Ach Range
ACHOFFSETENABLE	TOGGLE	F	Ach Offset Enable
ACHOFFSET	QUANT	0	Ach Offset (V)
ACHFILTER	IQUANT	3	Ach Filter
IERANGELOWERLIMIT	IQUANT	1	I/E Range Lower Limit
IERANGEMODE	TOGGLE	F	I/E AutoRange
IERANGE	IQUANT	7	I/E Range
POSFEEDENABLE	TOGGLE	F	Positive Feedback IR Comp
POSFEEDRESISTANCE	QUANT	0	Positive Feedback Resistance (ohm)
ACHSELECT	IQUANT	0	Ach Select
CABLEID	IQUANT	14	Cable ID
DCCALDATE	LABEL	2/27/2020	DC Calibration Date
ACCALDATE	LABEL	2/27/2020	AC Calibration Date
THERMOSELECT	IQUANT	1	Thermo Select
FRAMEWORKVERSION	QUANT	6.33	Framework Version
INSTRUMENTVERSION	LABEL	3.50	Instrument Version
ZCURVE	TABLE
	Pt	Time	Freq	Zreal	Zimag	Zsig	Zmod	Zphz	Idc	Vdc	IERange
	#	s	Hz	ohm	ohm	V	ohm	°	A	V	#
	0	1	1000078	1900.565	-2068.539	1	2809.093	-47.42333	1.646052E-008	0.0477761	8
	1	1	794390.6	2275.055	-2246.639	1	3197.384	-44.63994	4.529506E-008	0.0474751	8
	2	2	630984.4	2699.008	-2388.993	1	3604.432	-41.51324	3.605468E-008	0.0473226	8
	3	2	501234.4	3161.042	-2486.05	1	4021.521	-38.18382	3.33113E-008	0.0472323	8
	4	2	398109.4	3643.23	-2514.754	1	4426.863	-34.61553	-1.31915E-009	0.0472069	8
	5	3	316265.6	4127.714	-2489.481	1	4820.326	-31.09476	3.125872E-008	0.047158	8
	6	3	251203.1	4587.382	-2393.919	1	5174.449	-27.55775	2.688571E-008	0.0471579	8
	7	3	199546.9	5009.906	-2247.401	1	5490.899	-24.1606	2.46549E-008	0.0471425	8
	8	4	158578.1	5382.016	-2069.643	1	5766.239	-21.03415	1.635345E-009	0.0471727	8
	9	4	125953.1	5758.917	-1776.074	1	6026.572	-17.13998	7.066652E-010	0.0470924	7
	10	4	100078.1	5984.386	-1590.435	1	6192.121	-14.88312	1.261127E-011	0.0470816	7
	11	5	79453.13	6185.47	-1425.48	1	6347.601	-12.97759	1.169187E-009	0.0470846	7
	12	5	63140.62	6346.196	-1275.665	1	6473.139	-11.3657	9.347535E-010	0.0470794	7
	13	5	50203.12	6476.88	-1150.637	1	6578.293	-10.07366	3.948572E-010	0.0470749	7
	14	6	39890.62	6587.936	-1045.781	1	6670.424	-9.019972	8.706862E-010	0.0470765	7
	15	6	31640.63	6681.919	-976.203	1	6752.852	-8.311893	1.327782E-009	0.0470805	7
	16	6	25171.88	6764.418	-927.2906	1	6827.681	-7.805658	1.428752E-009	0.0470771	7
	17	7	20015.62	6839.603	-901.9761	1	6898.821	-7.512559	1.064328E-009	0.047078	7
	18	7	15890.62	6913.346	-900.7013	1	6971.773	-7.422937	8.714812E-010	0.0470725	7
	19	7	12609.37	6989.221	-924.3965	1	7050.086	-7.534228	1.973032E-009	0.0470839	7
	20	7	10078.13	7058.721	-969.115	1	7124.937	-7.817456	9.330607E-010	0.04708	7
	21	8	8015.625	7130.275	-1040.293	1	7205.764	-8.300776	1.181853E-009	0.0470778	7
	22	8	6328.125	7209.751	-1146.781	1	7300.385	-9.037741	1.416408E-009	0.0470704	7
	23	8	5015.625	7288.058	-1284.724	1	7400.426	-9.99727	1.510322E-009	0.0470753	7
	24	9	3984.375	7368.963	-1463.285	1	7512.844	-11.23136	1.176069E-009	0.0470677	7
	25	9	3170.956	7456.333	-1690.237	1	7645.509	-12.77223	1.372498E-009	0.0470669	7
	26	9	2527.573	7552.028	-1974.744	1	7805.943	-14.6539	9.297814E-010	0.0470683	7
	27	10	1976.103	7669.878	-2361.634	1	8025.232	-17.11414	1.067776E-009	0.0470656	7
	28	10	1577.524	7791.959	-2807.667	1	8282.368	-19.81555	1.656282E-009	0.0470701	7
	29	10	1265.625	7937.133	-3342.448	1	8612.203	-22.8367	1.167784E-009	0.0470724	7
	30	11	998.264	8122.276	-4045.878	1	9074.167	-26.47887	8.821258E-010	0.0470628	7
	31	11	796.875	8343.142	-4860.593	1	9655.74	-30.22446	-6.811971E-010	0.0471137	6
	32	11	627.7902	8621.761	-5926.902	1	10462.45	-34.506	-3.862051E-010	0.047123	6
	33	12	505.5147	8940.468	-7105.458	1	11420.14	-38.47601	-5.260299E-010	0.0471159	6
	34	12	397.9953	9366.743	-8675.426	1	12767.1	-42.80569	4.48814E-010	0.0471342	6
	35	12	315.5048	9884.25	-10533.19	1	14444.6	-46.82045	4.819696E-010	0.0471329	6
	36	13	252.4038	10501.46	-12688.55	1	16470.58	-50.38773	3.729259E-010	0.0471282	6
	37	13	198.6229	11324.75	-15491.7	1	19189.65	-53.83244	4.237211E-010	0.0471261	6
	38	13	158.3615	12299.33	-18699.2	1	22381.54	-56.66523	4.323471E-010	0.0471308	6
	39	14	125.558	13550.67	-22659.31	1	26401.99	-59.11982	5.177448E-010	0.0471329	6
	40	14	100.4464	15059.86	-27221.96	1	31110.04	-61.04754	4.600578E-010	0.0471311	6
	41	14	79.00281	17108.41	-33108.69	1	37267.72	-62.67303	5.311168E-010	0.047135	6
	42	15	63.3446	19466.11	-39567.95	1	44097.07	-63.80436	4.665207E-010	0.0471258	6
	43	15	49.86702	22647.94	-47881.25	1	52967.38	-64.68575	7.388041E-011	0.0471269	6
	44	15	39.72458	26393.98	-57281.73	1	63070.11	-65.26093	2.760524E-010	0.0471325	6
	45	16	31.6723	30990.16	-68367.53	1	75063.37	-65.6158	1.919986E-010	0.0471287	6
	46	16	24.93351	37046.03	-82297.43	1	90251.18	-65.7652	-9.384054E-011	0.047127	6
	47	16	19.86229	44220.77	-97964.6	1	107482.7	-65.7058	-1.098738E-009	0.0471305	5
	48	17	15.83615	53261.77	-116256.4	1	127876.3	-65.38556	1.088685E-009	0.0471299	5
	49	17	12.40079	65744.98	-139250.4	1	153990.5	-64.72636	7.682084E-011	0.0471307	5
	50	17	9.93114	79971.45	-163304.9	1	181834.9	-63.90871	5.590122E-010	0.0471224	5
	51	17	7.944915	97143.8	-190317.4	1	213676.4	-62.95885	1.120932E-009	0.0471262	5
	52	18	6.317385	119065.6	-221693.8	1	251644.1	-61.76097	-2.280424E-010	0.0471432	5
	53	19	5.008013	145527.7	-256836.5	1	295200.5	-60.46342	-9.69274E-011	0.0471267	5
	54	20	3.945707	176530.6	-296324.1	1	344921.8	-59.21627	3.983858E-010	0.0471319	5
	55	20	3.158693	210228.6	-337009.9	1	397204.9	-58.04386	-5.499967E-011	0.0471358	5
	56	22	2.504006	248465.3	-384252.3	1	457585.9	-57.11248	-5.084641E-011	0.0471235	5
	57	23	1.998082	289770.9	-435013.5	1	522689.1	-56.33165	2.191357E-010	0.0471667	5
	58	24	1.584686	334442.7	-496267.1	1	598442.1	-56.02331	1.761742E-010	0.0471545	5
	59	26	1.266892	381841	-562864.6	1	680161.1	-55.84747	1.081871E-010	0.0471113	5
	60	29	0.999041	438294.6	-647255.6	1	781691.7	-55.89577	6.780403E-011	0.0470902	5
