EXPLAIN
TAG	EISPOT
TITLE	LABEL	Potentiostatic EIS	Test &Identifier
DATE	LABEL	3/9/2020	Date
TIME	LABEL	21:02:03	Time
NOTES	NOTES	1	&Notes...
	
PSTAT	PSTAT	REF600-11020	Potentiostat
VDC	POTEN	0.00000E+000	T	DC &Voltage (V)
FREQINIT	QUANT	1.00000E+006	Initial Fre&q. (Hz)
FREQFINAL	QUANT	1.00000E+000	Final Fre&q. (Hz)
PTSPERDEC	QUANT	1.00000E+001	Points/&decade
VAC	QUANT	2.50000E+001	AC &Voltage (mV rms)
AREA	QUANT	4.00000E-005	&Area (cm^2)
CONDIT	TWOPARAM	F	5.00000E+000	0.00000E+000	Conditionin&g	Time(s)	E(V)
DELAY	TWOPARAM	T	3.00000E+000	0.00000E+000	Init. De&lay	Time(s)	Stab.(mV/s)
SPEED	SELECTOR	0	&Optimize for:
ZGUESS	QUANT	1.00000E+003	E&stimated Z (ohms)
OCVCURVE	TABLE	12
	Pt	T	Vf	Vm	Ach	Over
	#	s	V vs. Ref.	V	V	bits
	0	0.258333	4.97401E-002	4.97401E-002	5.88396E-004	...........
	1	0.516667	4.97395E-002	4.97109E-002	5.88796E-004	...........
	2	0.775	4.97360E-002	4.96802E-002	5.86796E-004	...........
	3	1.03333	4.97260E-002	4.96531E-002	5.89096E-004	...........
	4	1.29167	4.97080E-002	4.96272E-002	5.89530E-004	...........
	5	1.55	4.96838E-002	4.95971E-002	5.89963E-004	...........
	6	1.80833	4.96566E-002	4.95681E-002	5.92096E-004	...........
	7	2.06667	4.96283E-002	4.95405E-002	5.91130E-004	...........
	8	2.325	4.95998E-002	4.95179E-002	5.89496E-004	...........
	9	2.58333	4.95717E-002	4.94911E-002	5.89263E-004	...........
	10	2.84167	4.95448E-002	4.94669E-002	5.89863E-004	...........
	11	3.1	4.95189E-002	4.94449E-002	5.88730E-004	...........
EOC	QUANT	0.0495189	Open Circuit (V)
PSTATMODEL	IQUANT	4	Pstat Model
PSTATSECTION	LABEL	REF600-11020	Pstat Section
PSTATSERIALNO	LABEL	11020	Pstat Serial Number
CTRLMODE	IQUANT	1	Control Mode
IESTAB	IQUANT	0	I/E Stability
CASPEED	IQUANT	1	Control Amp Speed
CONVENTION	IQUANT	1	Current Convention
ICHRANGE	IQUANT	2	Ich Range
ICHRANGEMODE	TOGGLE	F	Ich Auto Range
ICHOFFSETENABLE	TOGGLE	T	Ich Offset Enable
ICHOFFSET	QUANT	0	Ich Offset (V)
ICHFILTER	IQUANT	3	Ich Filter
VCHRANGE	IQUANT	2	Vch Range
VCHRANGEMODE	TOGGLE	F	Vch Auto Range
VCHOFFSETENABLE	TOGGLE	T	Vch Offset Enable
VCHOFFSET	QUANT	0	Vch Offset (V)
VCHFILTER	IQUANT	3	Vch Filter
ACHRANGE	IQUANT	2	Ach Range
ACHOFFSETENABLE	TOGGLE	F	Ach Offset Enable
ACHOFFSET	QUANT	0	Ach Offset (V)
ACHFILTER	IQUANT	3	Ach Filter
IERANGELOWERLIMIT	IQUANT	1	I/E Range Lower Limit
IERANGEMODE	TOGGLE	F	I/E AutoRange
IERANGE	IQUANT	7	I/E Range
POSFEEDENABLE	TOGGLE	F	Positive Feedback IR Comp
POSFEEDRESISTANCE	QUANT	0	Positive Feedback Resistance (ohm)
ACHSELECT	IQUANT	0	Ach Select
CABLEID	IQUANT	14	Cable ID
DCCALDATE	LABEL	2/27/2020	DC Calibration Date
ACCALDATE	LABEL	2/27/2020	AC Calibration Date
THERMOSELECT	IQUANT	1	Thermo Select
FRAMEWORKVERSION	QUANT	6.33	Framework Version
INSTRUMENTVERSION	LABEL	3.50	Instrument Version
ZCURVE	TABLE
	Pt	Time	Freq	Zreal	Zimag	Zsig	Zmod	Zphz	Idc	Vdc	IERange
	#	s	Hz	ohm	ohm	V	ohm	°	A	V	#
	0	1	1000078	1760.28	-1436.251	1	2271.872	-39.21176	3.193463E-008	0.0517635	8
	1	1	794390.6	2030.927	-1475.143	1	2510.122	-35.99239	-1.925546E-008	0.0515153	8
	2	2	630984.4	2302.217	-1486.12	1	2740.211	-32.84294	2.385994E-009	0.0513225	8
	3	2	501234.4	2569.025	-1467.225	1	2958.486	-29.73162	-5.27536E-010	0.0512325	8
	4	2	398109.4	2822.946	-1424.357	1	3161.933	-26.77387	7.869092E-008	0.0511651	8
	5	2	316265.6	3055.648	-1365.288	1	3346.789	-24.07547	3.483033E-008	0.0511545	8
	6	3	251203.1	3263.663	-1293.879	1	3510.786	-21.62584	-4.586578E-009	0.0511726	8
	7	3	199546.9	3455.755	-1225.13	1	3666.495	-19.52037	3.650784E-008	0.0511559	8
	8	3	158578.1	3621.361	-1153.421	1	3800.61	-17.66693	4.192607E-008	0.0511648	8
	9	4	125953.1	3810.982	-1021.181	1	3945.427	-15.00044	5.974777E-010	0.0510987	7
	10	4	100078.1	3928.074	-973.28	1	4046.855	-13.91622	-4.631417E-010	0.0510874	7
	11	4	79453.13	4047.691	-945.3433	1	4156.619	-13.14586	1.740246E-009	0.0510864	7
	12	5	63140.62	4160.375	-926.7243	1	4262.339	-12.55763	5.338557E-010	0.0510775	7
	13	5	50203.12	4269.801	-919.1683	1	4367.616	-12.14877	2.721659E-009	0.0510783	7
	14	5	39890.62	4376.735	-922.9758	1	4472.997	-11.90819	-1.397001E-010	0.0510772	7
	15	6	31640.63	4486.167	-939.9532	1	4583.581	-11.83358	1.462124E-009	0.0510712	7
	16	6	25171.88	4597.307	-968.413	1	4698.197	-11.89533	1.998133E-009	0.0510605	7
	17	6	20015.62	4714.117	-1008.76	1	4820.839	-12.0784	2.818558E-009	0.0510729	7
	18	7	15890.62	4836.176	-1060.215	1	4951.026	-12.3651	3.981245E-009	0.0510709	7
	19	7	12609.37	4963.871	-1121.817	1	5089.055	-12.73471	1.852855E-009	0.0510665	7
	20	7	10078.13	5093.271	-1193.387	1	5231.213	-13.18689	2.201338E-009	0.0510679	7
	21	8	8015.625	5229.951	-1280.293	1	5384.379	-13.7555	1.152786E-009	0.0510676	7
	22	8	6328.125	5374.427	-1386.15	1	5550.305	-14.46231	1.22158E-009	0.0510692	7
	23	8	5015.625	5519.156	-1513.298	1	5722.863	-15.3331	1.034052E-009	0.0510681	7
	24	9	3984.375	5666.365	-1669.032	1	5907.061	-16.41237	2.234203E-009	0.0510751	7
	25	9	3170.956	5812.713	-1856.914	1	6102.111	-17.71646	2.61532E-009	0.0510694	7
	26	9	2527.573	5960.957	-2087.377	1	6315.865	-19.29897	2.061191E-009	0.0510694	7
	27	9	1976.103	6129.643	-2404.495	1	6584.384	-21.41875	2.040863E-009	0.0510664	7
	28	10	1577.524	6294.941	-2769.144	1	6877.095	-23.74469	3.08132E-009	0.0510702	7
	29	10	1265.625	6468.717	-3207.84	1	7220.425	-26.37683	2.796129E-009	0.0510722	7
	30	10	998.264	6677.028	-3792.27	1	7678.803	-29.59474	3.994185E-009	0.0510742	7
	31	11	796.875	6897.393	-4471.875	1	8220.2	-32.95707	2.050545E-009	0.05106	7
	32	11	627.7902	7169.719	-5366.924	1	8955.934	-36.81685	3.901816E-009	0.0510729	7
	33	11	505.5147	7455.99	-6342.11	1	9788.47	-40.38469	-3.642822E-010	0.0511161	6
	34	12	397.9953	7823.043	-7673.417	1	10958.16	-44.4468	4.116861E-010	0.0511325	6
	35	12	315.5048	8243.955	-9257.97	1	12396.48	-48.31586	4.238705E-010	0.0511315	6
	36	12	252.4038	8719.649	-11112.98	1	14125.53	-51.88097	4.748911E-010	0.0511221	6
	37	13	198.6229	9329.46	-13550.19	1	16451.33	-55.45214	5.450241E-010	0.0511269	6
	38	13	158.3615	10018.92	-16374.52	1	19196.45	-58.5392	3.370164E-010	0.0511242	6
	39	13	125.558	10870.03	-19914.65	1	22688.12	-61.37294	4.197952E-010	0.0511275	6
	40	14	100.4464	11869.66	-24072.9	1	26840.15	-63.7534	4.43089E-010	0.0511248	6
	41	14	79.00281	13205.87	-29561.5	1	32377.11	-65.92847	4.329326E-010	0.0511192	6
	42	14	63.3446	14752.41	-35735.17	1	38660.52	-67.56789	3.80576E-010	0.0511233	6
	43	15	49.86702	16892.18	-43906.81	1	47044.17	-68.95686	9.811538E-011	0.0511181	6
	44	15	39.72458	19518.26	-53361.89	1	56819.48	-69.90892	3.881782E-010	0.0511214	6
	45	15	31.6723	22918.48	-64770.72	1	68705.92	-70.51418	3.863634E-010	0.051122	6
	46	16	24.93351	27592.49	-79309.78	1	83972.54	-70.81682	1.242814E-010	0.0511195	6
	47	16	19.86229	33482.04	-95967.5	1	101640.6	-70.76667	2.127616E-010	0.0511192	6
	48	16	15.83615	41076.91	-115671.6	1	122748.7	-70.4492	-6.70677E-010	0.0511221	5
	49	17	12.40079	51919.3	-140970	1	150227	-69.78123	-7.289385E-010	0.0511288	5
	50	17	9.93114	64776.08	-167831.9	1	179898.6	-68.89551	-9.774496E-010	0.0511257	5
	51	17	7.944915	81026.43	-199028.3	1	214889.6	-67.84826	-3.888116E-010	0.051131	5
	52	18	6.317385	102525.3	-235388.6	1	256747.4	-66.4641	1.586912E-010	0.0511171	5
	53	18	5.008013	130063.3	-277139.5	1	306141.7	-64.85903	-5.979025E-011	0.0511208	5
	54	19	3.945707	164718.6	-324960.4	1	364323.3	-63.12009	-2.475261E-010	0.0511209	5
	55	20	3.158693	203814	-372663.6	1	424756.8	-61.32524	2.359117E-011	0.0511101	5
	56	21	2.504006	251331.3	-427161.6	1	495615.2	-59.5285	2.864277E-010	0.0511161	5
	57	23	1.998082	303253.2	-482504.8	1	569888.9	-57.85073	5.650506E-011	0.0510952	5
	58	24	1.584686	363320.3	-546273.1	1	656060.9	-56.37255	-3.347273E-011	0.0510788	5
	59	26	1.266892	424015.3	-612493.1	1	744940.8	-55.30601	1.1142E-011	0.0511044	5
	60	29	0.999041	493943	-690299.2	1	848818.4	-54.41442	4.438835E-011	0.0511356	5
