EXPLAIN
TAG	EISPOT
TITLE	LABEL	Potentiostatic EIS	Test &Identifier
DATE	LABEL	3/17/2020	Date
TIME	LABEL	16:12:31	Time
NOTES	NOTES	1	&Notes...
	
PSTAT	PSTAT	REF600-11020	Potentiostat
VDC	POTEN	0.00000E+000	T	DC &Voltage (V)
FREQINIT	QUANT	1.00000E+006	Initial Fre&q. (Hz)
FREQFINAL	QUANT	1.00000E+000	Final Fre&q. (Hz)
PTSPERDEC	QUANT	1.00000E+001	Points/&decade
VAC	QUANT	2.50000E+001	AC &Voltage (mV rms)
AREA	QUANT	4.00000E-004	&Area (cm^2)
CONDIT	TWOPARAM	F	5.00000E+000	0.00000E+000	Conditionin&g	Time(s)	E(V)
DELAY	TWOPARAM	T	3.00000E+000	0.00000E+000	Init. De&lay	Time(s)	Stab.(mV/s)
SPEED	SELECTOR	0	&Optimize for:
ZGUESS	QUANT	5.00000E+003	E&stimated Z (ohms)
OCVCURVE	TABLE	12
	Pt	T	Vf	Vm	Ach	Over
	#	s	V vs. Ref.	V	V	bits
	0	0.258333	1.67065E-002	1.67065E-002	5.55697E-004	...........
	1	0.516667	1.67064E-002	1.67044E-002	5.48997E-004	...........
	2	0.775	1.67062E-002	1.67013E-002	5.46964E-004	...........
	3	1.03333	1.67053E-002	1.66979E-002	5.49530E-004	...........
	4	1.29167	1.67037E-002	1.66978E-002	5.51630E-004	...........
	5	1.55	1.67016E-002	1.66925E-002	5.51230E-004	...........
	6	1.80833	1.66991E-002	1.66895E-002	5.45930E-004	...........
	7	2.06667	1.66963E-002	1.66882E-002	5.47497E-004	...........
	8	2.325	1.66934E-002	1.66852E-002	5.50330E-004	...........
	9	2.58333	1.66906E-002	1.66830E-002	5.58364E-004	...........
	10	2.84167	1.66880E-002	1.66800E-002	5.52897E-004	...........
	11	3.1	1.66855E-002	1.66778E-002	5.51330E-004	...........
EOC	QUANT	0.0166855	Open Circuit (V)
PSTATMODEL	IQUANT	4	Pstat Model
PSTATSECTION	LABEL	REF600-11020	Pstat Section
PSTATSERIALNO	LABEL	11020	Pstat Serial Number
CTRLMODE	IQUANT	1	Control Mode
IESTAB	IQUANT	0	I/E Stability
CASPEED	IQUANT	1	Control Amp Speed
CONVENTION	IQUANT	1	Current Convention
ICHRANGE	IQUANT	2	Ich Range
ICHRANGEMODE	TOGGLE	F	Ich Auto Range
ICHOFFSETENABLE	TOGGLE	T	Ich Offset Enable
ICHOFFSET	QUANT	0	Ich Offset (V)
ICHFILTER	IQUANT	3	Ich Filter
VCHRANGE	IQUANT	2	Vch Range
VCHRANGEMODE	TOGGLE	F	Vch Auto Range
VCHOFFSETENABLE	TOGGLE	T	Vch Offset Enable
VCHOFFSET	QUANT	0	Vch Offset (V)
VCHFILTER	IQUANT	3	Vch Filter
ACHRANGE	IQUANT	2	Ach Range
ACHOFFSETENABLE	TOGGLE	F	Ach Offset Enable
ACHOFFSET	QUANT	0	Ach Offset (V)
ACHFILTER	IQUANT	3	Ach Filter
IERANGELOWERLIMIT	IQUANT	1	I/E Range Lower Limit
IERANGEMODE	TOGGLE	F	I/E AutoRange
IERANGE	IQUANT	6	I/E Range
POSFEEDENABLE	TOGGLE	F	Positive Feedback IR Comp
POSFEEDRESISTANCE	QUANT	0	Positive Feedback Resistance (ohm)
ACHSELECT	IQUANT	0	Ach Select
CABLEID	IQUANT	14	Cable ID
DCCALDATE	LABEL	2/27/2020	DC Calibration Date
ACCALDATE	LABEL	2/27/2020	AC Calibration Date
THERMOSELECT	IQUANT	1	Thermo Select
FRAMEWORKVERSION	QUANT	6.33	Framework Version
INSTRUMENTVERSION	LABEL	3.50	Instrument Version
ZCURVE	TABLE
	Pt	Time	Freq	Zreal	Zimag	Zsig	Zmod	Zphz	Idc	Vdc	IERange
	#	s	Hz	ohm	ohm	V	ohm	°	A	V	#
	0	1	1000078	1997.019	-2076.585	1	2881.022	-46.11897	9.250514E-008	0.0191134	8
	1	1	794390.6	2430.027	-2167.598	1	3256.303	-41.73314	1.259482E-008	0.0188138	8
	2	1	630984.4	2887.121	-2184.741	1	3620.574	-37.11551	5.820803E-008	0.0186496	8
	3	2	501234.4	3338.94	-2114.672	1	3952.26	-32.34756	5.099307E-008	0.0185637	8
	4	2	398109.4	3748.025	-1976.876	1	4237.42	-27.80916	4.944125E-008	0.0185006	8
	5	2	316265.6	4069.309	-1817.899	1	4456.908	-24.07194	3.148283E-008	0.0184577	8
	6	3	251203.1	4337.911	-1629.699	1	4633.939	-20.59057	3.854155E-008	0.0184482	8
	7	3	199546.9	4563.725	-1449.759	1	4788.464	-17.6235	3.581489E-008	0.0184466	8
	8	3	158578.1	4733.411	-1285.63	1	4904.898	-15.19539	5.125399E-008	0.0184503	8
	9	4	125953.1	4894.682	-1097.981	1	5016.321	-12.64336	5.792453E-010	0.0183957	7
	10	4	100078.1	4996.21	-982.606	1	5091.918	-11.12638	1.827838E-009	0.0183803	7
	11	4	79453.13	5081.397	-910.6512	1	5162.352	-10.16028	1.924705E-009	0.0183721	7
	12	5	63140.62	5163.992	-855.0325	1	5234.299	-9.401504	4.291983E-010	0.0183682	7
	13	5	50203.12	5238.425	-820.4738	1	5302.29	-8.90169	1.019925E-009	0.0183686	7
	14	5	39890.62	5309.618	-805.6853	1	5370.398	-8.628282	6.589659E-010	0.0183593	7
	15	5	31640.63	5381.618	-812.1675	1	5442.557	-8.582038	1.707579E-009	0.0183649	7
	16	6	25171.88	5453.736	-837.4614	1	5517.66	-8.729999	1.532572E-009	0.0183584	7
	17	6	20015.62	5529.048	-882.4904	1	5599.033	-9.068478	1.135642E-009	0.0183558	7
	18	6	15890.62	5610.413	-948.9774	1	5690.104	-9.60047	1.413794E-009	0.018359	7
	19	7	12609.37	5697.705	-1037.401	1	5791.376	-10.319	1.695095E-009	0.0183527	7
	20	7	10078.13	5790.921	-1146.1	1	5903.246	-11.19492	1.49975E-009	0.0183511	7
	21	7	8015.625	5894.476	-1283.507	1	6032.598	-12.28425	1.654399E-009	0.0183554	7
	22	8	6328.125	6014.463	-1457.884	1	6188.634	-13.62548	1.845049E-009	0.0183546	7
	23	8	5015.625	6146.443	-1664.997	1	6367.965	-15.15698	2.089003E-009	0.0183566	7
	24	8	3984.375	6293.359	-1910.726	1	6577.024	-16.88881	1.628148E-009	0.018347	7
	25	9	3170.956	6457.379	-2204.793	1	6823.405	-18.85184	2.571107E-009	0.0183486	7
	26	9	2527.573	6640.727	-2551.519	1	7114.036	-21.01792	2.535761E-009	0.0183522	7
	27	9	1976.103	6866.455	-3002.262	1	7494.117	-23.61668	2.050239E-009	0.0183495	7
	28	10	1577.524	7102.83	-3498.755	1	7917.795	-26.22421	3.215085E-009	0.0183524	7
	29	10	1265.625	7363.774	-4075.053	1	8416.129	-28.95979	3.644215E-009	0.0183552	7
	30	10	998.264	7682.731	-4821.753	1	9070.483	-32.11276	2.90064E-009	0.0183452	7
	31	11	796.875	8041.581	-5665.854	1	9837.12	-35.16736	-1.447229E-010	0.0183991	6
	32	11	627.7902	8467.482	-6751.198	1	10829.45	-38.56566	-3.200638E-010	0.0184042	6
	33	11	505.5147	8924.322	-7943.185	1	11947.29	-41.67101	-5.60102E-010	0.0183974	6
	34	12	397.9953	9522.84	-9524.68	1	13468.63	-45.00554	4.807266E-010	0.0184083	6
	35	12	315.5048	10221.26	-11384.49	1	15299.7	-48.08177	3.855432E-010	0.0184148	6
	36	12	252.4038	11034.32	-13530.46	1	17459.37	-50.80218	3.459754E-010	0.0184119	6
	37	13	198.6229	12108.29	-16294.31	1	20300.62	-53.384	4.069166E-010	0.0184116	6
	38	13	158.3615	13364.31	-19419.3	1	23573.59	-55.46436	2.722872E-010	0.0184109	6
	39	13	125.558	14956.29	-23213.9	1	27614.78	-57.20705	1.881925E-010	0.0184091	6
	40	13	100.4464	16836.27	-27504.74	1	32248.58	-58.52827	3.473158E-010	0.0184088	6
	41	14	79.00281	19304.28	-32927.72	1	38169.23	-59.61851	3.795357E-010	0.0184113	6
	42	14	63.3446	22035.77	-38772.54	1	44596.92	-60.38894	4.455807E-010	0.0184081	6
	43	15	49.86702	25553.99	-46199.67	1	52795.98	-61.05211	-8.551403E-011	0.0184094	6
	44	15	39.72458	29534.33	-54537.37	1	62020.97	-61.56255	1.469343E-010	0.0184106	6
	45	15	31.6723	34248.44	-64343.05	1	72890.22	-61.97458	3.473327E-010	0.018411	6
	46	16	24.93351	40347.77	-76684.65	1	86651.48	-62.24881	-5.007366E-010	0.018407	6
	47	16	19.86229	47425.52	-90590.38	1	102253.6	-62.36722	-1.578795E-009	0.0184052	6
	48	16	15.83615	56367.25	-106748.1	1	120716.3	-62.16416	7.180466E-010	0.0184146	5
	49	16	12.40079	68773.68	-126987.6	1	144414.9	-61.56099	-1.210518E-009	0.0184159	5
	50	17	9.93114	82601.88	-147948.9	1	169446	-60.82479	-6.495084E-010	0.0184064	5
	51	17	7.944915	99890.1	-170921.4	1	197970	-59.69707	1.385098E-009	0.0184106	5
	52	17	6.317385	121391.3	-197254.8	1	231614.5	-58.3917	-4.335075E-010	0.0184285	5
	53	18	5.008013	147047.6	-225860.8	1	269510.9	-56.93369	-5.298424E-010	0.0184066	5
	54	19	3.945707	176995.6	-256130.8	1	311336.5	-55.35413	2.405674E-010	0.0184192	5
	55	20	3.158693	207954.5	-286970.3	1	354396.7	-54.07084	-2.942553E-010	0.0184084	5
	56	21	2.504006	241741.3	-320963.3	1	401816.3	-53.01389	-1.941302E-011	0.0184041	5
	57	22	1.998082	276227	-358653.4	1	452695.9	-52.39732	2.233574E-010	0.0184499	5
	58	24	1.584686	311272	-402996.4	1	509211.5	-52.31772	8.180547E-011	0.0184125	5
	59	26	1.266892	348150.8	-454104.5	1	572206.1	-52.5235	-4.857508E-012	0.0183748	5
	60	28	0.999041	389524.1	-521583.6	1	650982.8	-53.24724	-3.950407E-011	0.018361	5
