EXPLAIN
TAG	EISPOT
TITLE	LABEL	Potentiostatic EIS	Test &Identifier
DATE	LABEL	5/26/2020	Date
TIME	LABEL	18:41:00	Time
NOTES	NOTES	1	&Notes...
	
PSTAT	PSTAT	REF600-11020	Potentiostat
VDC	POTEN	0.00000E+000	T	DC &Voltage (V)
FREQINIT	QUANT	1.00000E+006	Initial Fre&q. (Hz)
FREQFINAL	QUANT	1.00000E+000	Final Fre&q. (Hz)
PTSPERDEC	QUANT	1.00000E+001	Points/&decade
VAC	QUANT	2.50000E+001	AC &Voltage (mV rms)
AREA	QUANT	5.00000E-004	&Area (cm^2)
CONDIT	TWOPARAM	F	5.00000E+000	0.00000E+000	Conditionin&g	Time(s)	E(V)
DELAY	TWOPARAM	T	3.00000E+000	0.00000E+000	Init. De&lay	Time(s)	Stab.(mV/s)
SPEED	SELECTOR	0	&Optimize for:
ZGUESS	QUANT	1.00000E+003	E&stimated Z (ohms)
OCVCURVE	TABLE	12
	Pt	T	Vf	Vm	Ach	Over
	#	s	V vs. Ref.	V	V	bits
	0	0.258333	1.14343E-001	1.14343E-001	5.86730E-004	...........
	1	0.516667	1.14343E-001	1.14308E-001	5.79397E-004	...........
	2	0.775	1.14339E-001	1.14276E-001	5.84730E-004	...........
	3	1.03333	1.14327E-001	1.14246E-001	5.85430E-004	...........
	4	1.29167	1.14307E-001	1.14217E-001	5.83197E-004	...........
	5	1.55	1.14280E-001	1.14189E-001	5.83230E-004	...........
	6	1.80833	1.14250E-001	1.14166E-001	5.82130E-004	...........
	7	2.06667	1.14221E-001	1.14144E-001	5.82997E-004	...........
	8	2.325	1.14194E-001	1.14120E-001	5.82430E-004	...........
	9	2.58333	1.14169E-001	1.14095E-001	5.85163E-004	...........
	10	2.84167	1.14145E-001	1.14075E-001	5.78497E-004	...........
	11	3.1	1.14122E-001	1.14055E-001	5.83997E-004	...........
EOC	QUANT	0.1141218	Open Circuit (V)
PSTATMODEL	IQUANT	4	Pstat Model
PSTATSECTION	LABEL	REF600-11020	Pstat Section
PSTATSERIALNO	LABEL	11020	Pstat Serial Number
CTRLMODE	IQUANT	1	Control Mode
IESTAB	IQUANT	0	I/E Stability
CASPEED	IQUANT	1	Control Amp Speed
CONVENTION	IQUANT	1	Current Convention
ICHRANGE	IQUANT	2	Ich Range
ICHRANGEMODE	TOGGLE	F	Ich Auto Range
ICHOFFSETENABLE	TOGGLE	T	Ich Offset Enable
ICHOFFSET	QUANT	0	Ich Offset (V)
ICHFILTER	IQUANT	3	Ich Filter
VCHRANGE	IQUANT	2	Vch Range
VCHRANGEMODE	TOGGLE	F	Vch Auto Range
VCHOFFSETENABLE	TOGGLE	T	Vch Offset Enable
VCHOFFSET	QUANT	0	Vch Offset (V)
VCHFILTER	IQUANT	3	Vch Filter
ACHRANGE	IQUANT	2	Ach Range
ACHOFFSETENABLE	TOGGLE	F	Ach Offset Enable
ACHOFFSET	QUANT	0	Ach Offset (V)
ACHFILTER	IQUANT	3	Ach Filter
IERANGELOWERLIMIT	IQUANT	1	I/E Range Lower Limit
IERANGEMODE	TOGGLE	F	I/E AutoRange
IERANGE	IQUANT	8	I/E Range
POSFEEDENABLE	TOGGLE	F	Positive Feedback IR Comp
POSFEEDRESISTANCE	QUANT	0	Positive Feedback Resistance (ohm)
ACHSELECT	IQUANT	0	Ach Select
CABLEID	IQUANT	14	Cable ID
DCCALDATE	LABEL	2/27/2020	DC Calibration Date
ACCALDATE	LABEL	2/27/2020	AC Calibration Date
THERMOSELECT	IQUANT	1	Thermo Select
FRAMEWORKVERSION	QUANT	6.33	Framework Version
INSTRUMENTVERSION	LABEL	3.50	Instrument Version
ZCURVE	TABLE
	Pt	Time	Freq	Zreal	Zimag	Zsig	Zmod	Zphz	Idc	Vdc	IERange
	#	s	Hz	ohm	ohm	V	ohm	°	A	V	#
	0	1	1000078	1648.02	-2329.229	1	2853.293	-54.7191	4.710955E-008	0.1164128	8
	1	1	794390.6	1983.777	-2627.098	1	3291.962	-52.94278	5.655586E-008	0.1160849	8
	2	2	630984.4	2367.874	-2940.771	1	3775.574	-51.1594	4.732026E-008	0.1159089	8
	3	2	501234.4	2803.283	-3261.249	1	4300.481	-49.31852	5.010692E-008	0.1158111	8
	4	2	398109.4	3291.956	-3583.011	1	4865.69	-47.42421	1.324581E-008	0.1157612	8
	5	3	316265.6	3822.954	-3931.208	1	5483.554	-45.79984	5.687186E-008	0.1157152	8
	6	3	251203.1	4425.274	-4273.101	1	6151.621	-43.99775	5.996689E-008	0.1157	8
	7	3	199546.9	5085.289	-4640.204	1	6884.16	-42.3797	5.599929E-008	0.1156949	8
	8	3	158578.1	5817.584	-4993.519	1	7666.78	-40.64112	4.288276E-008	0.1157057	8
	9	4	125953.1	6753.308	-5275.842	1	8569.812	-37.99778	3.045491E-010	0.1156477	7
	10	4	100078.1	7640.63	-5589.988	1	9467.164	-36.18971	3.233366E-009	0.1156335	7
	11	4	79453.13	8647.279	-5830.347	1	10429.21	-33.98945	2.398731E-009	0.1156221	7
	12	5	63140.62	9723.34	-5999.011	1	11425.04	-31.67335	3.503098E-009	0.1156208	7
	13	5	50203.12	10827.14	-6048.44	1	12402.04	-29.18933	3.539343E-009	0.115619	7
	14	5	39890.62	11924.56	-5949.254	1	13326.25	-26.51495	4.050507E-009	0.1156195	7
	15	6	31640.63	12996.62	-5758.577	1	14215.25	-23.89731	3.479502E-009	0.1156059	7
	16	6	25171.88	13979.67	-5473.429	1	15012.98	-21.38172	2.92958E-009	0.1156013	7
	17	6	20015.62	14879.71	-5116.648	1	15734.87	-18.97642	2.999279E-009	0.1156073	7
	18	7	15890.62	15640.48	-4684.652	1	16326.99	-16.67406	3.724526E-009	0.1156062	7
	19	7	12609.37	16352.07	-4040.43	1	16843.85	-13.8792	4.157943E-010	0.115659	6
	20	7	10078.13	16833.88	-3681.502	1	17231.75	-12.33613	1.851435E-010	0.1156461	6
	21	8	8015.625	17212.37	-3353.6	1	17536.03	-11.02519	2.667161E-010	0.115647	6
	22	8	6328.125	17518.16	-3086.486	1	17787.98	-9.99227	7.419476E-011	0.1156482	6
	23	8	5015.625	17767.34	-2915.774	1	18005	-9.319663	3.331279E-010	0.1156505	6
	24	9	3984.375	17997.28	-2836.987	1	18219.51	-8.95806	4.812841E-010	0.1156497	6
	25	9	3170.956	18216.16	-2853.638	1	18438.32	-8.903266	1.145079E-010	0.1156516	6
	26	9	2527.573	18380.97	-2962.284	1	18618.15	-9.155088	6.215178E-011	0.1156428	6
	27	9	1976.103	18548.01	-3197.999	1	18821.69	-9.7826	2.506184E-010	0.1156481	6
	28	10	1577.524	18740.04	-3536.062	1	19070.74	-10.68551	2.070201E-010	0.1156478	6
	29	10	1265.625	18917.28	-3985.652	1	19332.59	-11.89755	3.356291E-010	0.1156493	6
	30	10	998.264	19140.68	-4633.886	1	19693.62	-13.60924	1.94746E-010	0.1156367	6
	31	11	796.875	19380.4	-5423.983	1	20125.09	-15.63532	1.238794E-010	0.1156357	6
	32	11	627.7902	19645.93	-6481.458	1	20687.48	-18.25842	2.318998E-010	0.115638	6
	33	11	505.5147	19981.52	-7685.115	1	21408.46	-21.0373	2.05766E-010	0.1156422	6
	34	12	397.9953	20380.61	-9320.141	1	22410.58	-24.57482	5.995044E-010	0.1156535	6
	35	12	315.5048	20887.23	-11283.9	1	23740.32	-28.37922	5.28388E-010	0.115656	6
	36	12	252.4038	21503.38	-13594.3	1	25440.13	-32.30081	4.116246E-010	0.1156522	6
	37	13	198.6229	22256.06	-16623.31	1	27778.89	-36.75647	4.663359E-010	0.1156502	6
	38	13	158.3615	23193.25	-20116.63	1	30701.88	-40.93668	4.145131E-010	0.1156484	6
	39	13	125.558	24425.85	-24465.53	1	34571.44	-45.0465	4.601063E-010	0.1156481	6
	40	14	100.4464	25776.2	-29516.88	1	39187.48	-48.87027	4.950994E-010	0.1156444	6
	41	14	79.00281	27679.78	-36113.8	1	45501.39	-52.53128	3.922919E-010	0.1156468	6
	42	14	63.3446	29876.55	-43447.55	1	52728.53	-55.48578	3.371182E-010	0.1156433	6
	43	15	49.86702	32774.34	-53045.87	1	62354.01	-58.29019	5.575333E-010	0.1156399	6
	44	15	39.72458	36370.36	-64067.22	1	73670.97	-60.41683	5.956799E-010	0.1156458	6
	45	15	31.6723	40900.36	-77254.96	1	87413.77	-62.10234	4.371202E-010	0.1156446	6
	46	16	24.93351	47083.26	-93906.73	1	105049.1	-63.37158	4.26695E-010	0.115645	5
	47	16	19.86229	54751.24	-112917.6	1	125491.4	-64.13229	7.148416E-010	0.1156527	5
	48	16	15.83615	64424.24	-135374	1	149922	-64.55032	1.632556E-010	0.1156468	5
	49	16	12.40079	78450.51	-163757.7	1	181579.3	-64.40257	8.824234E-010	0.1156483	5
	50	17	9.93114	94404.09	-193766	1	215539.8	-64.02435	6.2675E-010	0.1156499	5
	51	17	7.944915	114911.4	-228197.3	1	255496.9	-63.27192	-2.418372E-010	0.1156559	5
	52	18	6.317385	141435.8	-267691.6	1	302758.8	-62.1501	4.226412E-010	0.1156379	5
	53	18	5.008013	174961.8	-312361.7	1	358024.4	-60.74569	2.232581E-010	0.1156443	5
	54	19	3.945707	216111.1	-362383.4	1	421931	-59.18983	-1.612021E-010	0.1156396	5
	55	20	3.158693	262211.5	-411979.3	1	488346	-57.52457	1.46916E-010	0.1156308	5
	56	21	2.504006	316966.5	-467975.1	1	565215.4	-55.88963	2.5661E-010	0.1156407	5
	57	22	1.998082	377225.1	-524542.4	1	646098.7	-54.27817	2.652413E-011	0.1156013	5
	58	24	1.584686	445675.9	-589434.1	1	738958.4	-52.90678	-1.588596E-011	0.1155916	5
	59	26	1.266892	517142.2	-655397.5	1	834854.4	-51.72475	2.463842E-011	0.1156227	5
	60	28	0.999041	601519.8	-732038.9	1	947474	-50.5899	6.45855E-011	0.1156493	5
