EXPLAIN
TAG	EISPOT
TITLE	LABEL	Potentiostatic EIS	Test &Identifier
DATE	LABEL	3/17/2020	Date
TIME	LABEL	15:41:53	Time
NOTES	NOTES	1	&Notes...
	
PSTAT	PSTAT	REF600-11020	Potentiostat
VDC	POTEN	0.00000E+000	T	DC &Voltage (V)
FREQINIT	QUANT	1.00000E+006	Initial Fre&q. (Hz)
FREQFINAL	QUANT	1.00000E+000	Final Fre&q. (Hz)
PTSPERDEC	QUANT	1.00000E+001	Points/&decade
VAC	QUANT	2.50000E+001	AC &Voltage (mV rms)
AREA	QUANT	4.00000E-004	&Area (cm^2)
CONDIT	TWOPARAM	F	5.00000E+000	0.00000E+000	Conditionin&g	Time(s)	E(V)
DELAY	TWOPARAM	T	3.00000E+000	0.00000E+000	Init. De&lay	Time(s)	Stab.(mV/s)
SPEED	SELECTOR	0	&Optimize for:
ZGUESS	QUANT	5.00000E+003	E&stimated Z (ohms)
OCVCURVE	TABLE	12
	Pt	T	Vf	Vm	Ach	Over
	#	s	V vs. Ref.	V	V	bits
	0	0.258333	5.60471E-002	5.60471E-002	5.74097E-004	...........
	1	0.516667	5.60471E-002	5.60463E-002	5.75663E-004	...........
	2	0.775	5.60471E-002	5.60483E-002	5.79497E-004	...........
	3	1.03333	5.60471E-002	5.60483E-002	5.78663E-004	...........
	4	1.29167	5.60473E-002	5.60498E-002	5.77163E-004	...........
	5	1.55	5.60478E-002	5.60498E-002	5.71997E-004	...........
	6	1.80833	5.60485E-002	5.60490E-002	5.73730E-004	...........
	7	2.06667	5.60490E-002	5.60480E-002	5.72663E-004	...........
	8	2.325	5.60491E-002	5.60461E-002	5.76863E-004	...........
	9	2.58333	5.60487E-002	5.60469E-002	5.74830E-004	...........
	10	2.84167	5.60479E-002	5.60426E-002	5.81930E-004	...........
	11	3.1	5.60467E-002	5.60398E-002	5.77997E-004	...........
EOC	QUANT	0.0560467	Open Circuit (V)
PSTATMODEL	IQUANT	4	Pstat Model
PSTATSECTION	LABEL	REF600-11020	Pstat Section
PSTATSERIALNO	LABEL	11020	Pstat Serial Number
CTRLMODE	IQUANT	1	Control Mode
IESTAB	IQUANT	0	I/E Stability
CASPEED	IQUANT	1	Control Amp Speed
CONVENTION	IQUANT	1	Current Convention
ICHRANGE	IQUANT	2	Ich Range
ICHRANGEMODE	TOGGLE	F	Ich Auto Range
ICHOFFSETENABLE	TOGGLE	T	Ich Offset Enable
ICHOFFSET	QUANT	0	Ich Offset (V)
ICHFILTER	IQUANT	3	Ich Filter
VCHRANGE	IQUANT	2	Vch Range
VCHRANGEMODE	TOGGLE	F	Vch Auto Range
VCHOFFSETENABLE	TOGGLE	T	Vch Offset Enable
VCHOFFSET	QUANT	0	Vch Offset (V)
VCHFILTER	IQUANT	3	Vch Filter
ACHRANGE	IQUANT	2	Ach Range
ACHOFFSETENABLE	TOGGLE	F	Ach Offset Enable
ACHOFFSET	QUANT	0	Ach Offset (V)
ACHFILTER	IQUANT	3	Ach Filter
IERANGELOWERLIMIT	IQUANT	1	I/E Range Lower Limit
IERANGEMODE	TOGGLE	F	I/E AutoRange
IERANGE	IQUANT	7	I/E Range
POSFEEDENABLE	TOGGLE	F	Positive Feedback IR Comp
POSFEEDRESISTANCE	QUANT	0	Positive Feedback Resistance (ohm)
ACHSELECT	IQUANT	0	Ach Select
CABLEID	IQUANT	14	Cable ID
DCCALDATE	LABEL	2/27/2020	DC Calibration Date
ACCALDATE	LABEL	2/27/2020	AC Calibration Date
THERMOSELECT	IQUANT	1	Thermo Select
FRAMEWORKVERSION	QUANT	6.33	Framework Version
INSTRUMENTVERSION	LABEL	3.50	Instrument Version
ZCURVE	TABLE
	Pt	Time	Freq	Zreal	Zimag	Zsig	Zmod	Zphz	Idc	Vdc	IERange
	#	s	Hz	ohm	ohm	V	ohm	°	A	V	#
	0	1	1000078	2198.366	-1667.345	1	2759.14	-37.17841	6.500025E-008	0.0583383	8
	1	2	794390.6	2437.502	-1722.828	1	2984.888	-35.25269	4.860782E-008	0.0580064	8
	2	2	630984.4	2664.164	-1787.314	1	3208.155	-33.85657	3.22211E-008	0.0578477	8
	3	2	501234.4	2880.86	-1864.692	1	3431.68	-32.91374	3.017821E-008	0.0577584	8
	4	3	398109.4	3088.268	-1971.594	1	3663.957	-32.55473	3.38491E-008	0.0576889	8
	5	3	316265.6	3291.748	-2105.928	1	3907.754	-32.60949	4.694258E-008	0.057677	8
	6	3	251203.1	3495.165	-2288.554	1	4177.757	-33.21587	4.84619E-008	0.0576549	8
	7	4	199546.9	3705.505	-2526.92	1	4485.097	-34.29151	3.549205E-008	0.0576573	8
	8	4	158578.1	3929.962	-2834.827	1	4845.704	-35.8043	8.388423E-009	0.0576525	8
	9	4	125953.1	4244.847	-3156.384	1	5289.753	-36.63377	1.688238E-009	0.0575839	7
	10	5	100078.1	4494.077	-3627.395	1	5775.354	-38.90874	2.953059E-009	0.0575888	7
	11	5	79453.13	4793.615	-4225.584	1	6390.173	-41.39626	2.656175E-009	0.0575822	7
	12	5	63140.62	5146.699	-4942.363	1	7135.507	-43.83973	2.216835E-009	0.0575773	7
	13	6	50203.12	5573.233	-5800.776	1	8044.249	-46.14608	2.037275E-009	0.0575723	7
	14	6	39890.62	6093.72	-6838.541	1	9159.644	-48.29625	2.218062E-009	0.0575655	7
	15	6	31640.63	6743.644	-8093.784	1	10534.99	-50.19934	2.311214E-009	0.0575682	7
	16	6	25171.88	7547.677	-9556.23	1	12177.39	-51.6977	3.912368E-009	0.0575729	7
	17	7	20015.62	8562.647	-11270.79	1	14154.49	-52.77532	2.868E-009	0.0575679	7
	18	7	15890.62	9875.59	-13262.73	1	16535.63	-53.32818	2.222144E-009	0.0575699	7
	19	7	12609.37	11873.88	-15436.97	1	19475.34	-52.43306	1.504683E-009	0.0576162	6
	20	8	10078.13	13989.59	-17883.65	1	22705.36	-51.96549	1.315118E-009	0.05762	6
	21	8	8015.625	16788.26	-20574.29	1	26554.6	-50.78616	1.131167E-009	0.0576139	6
	22	8	6328.125	20456.28	-23407.67	1	31086.63	-48.84935	1.253521E-009	0.0576202	6
	23	9	5015.625	24968.72	-25804.13	1	35906.69	-45.94265	1.211642E-009	0.0576197	6
	24	9	3984.375	30195.93	-27636.48	1	40933.72	-42.46595	1.149138E-009	0.0576135	6
	25	9	3170.956	35964.05	-28660.79	1	45987.54	-38.55235	9.386409E-010	0.05761	6
	26	10	2527.573	41816.71	-28516.88	1	50614.72	-34.29201	1.222424E-009	0.057616	6
	27	10	1976.103	47910.84	-27461.4	1	55222.97	-29.82035	1.082878E-009	0.0576098	6
	28	10	1577.524	52967.12	-25751.31	1	58895.21	-25.92788	1.131636E-009	0.057611	6
	29	11	1265.625	57274.83	-23677.96	1	61976.22	-22.46066	1.013183E-009	0.0576107	6
	30	11	998.264	60699.14	-21019.1	1	64235.41	-19.10011	1.142497E-009	0.0576165	6
	31	11	796.875	62926.95	-18496.85	1	65589.13	-16.38026	1.226434E-009	0.0576114	6
	32	12	627.7902	64629.76	-16327.49	1	66660.27	-14.17804	1.072802E-009	0.0576045	6
	33	12	505.5147	66194.89	-14949.38	1	67861.98	-12.72613	1.169926E-009	0.0576068	6
	34	12	397.9953	67795.6	-13940.22	1	69213.97	-11.61929	1.009112E-009	0.057621	6
	35	13	315.5048	68678.83	-13316.27	1	69957.88	-10.97304	8.868625E-010	0.0576228	6
	36	13	252.4038	68493.11	-13086.12	1	69732.01	-10.81643	9.104285E-010	0.0576187	6
	37	13	198.6229	69312.24	-13616.91	1	70637.15	-11.11464	7.834001E-010	0.0576195	6
	38	14	158.3615	70370.98	-14714.1	1	71892.84	-11.81001	7.854912E-010	0.0576143	6
	39	14	125.558	71535.46	-16456.46	1	73403.93	-12.95528	5.33219E-010	0.0576135	6
	40	14	100.4464	72072.27	-18704.43	1	74459.84	-14.54863	8.501869E-010	0.057609	6
	41	14	79.00281	73322.02	-21898.09	1	76522.19	-16.62859	6.459395E-010	0.057611	6
	42	15	63.3446	74260.23	-25657.38	1	78567.7	-19.06035	7.084809E-010	0.0576117	6
	43	15	49.86702	75707.41	-30743.44	1	81711.51	-22.1012	2.471418E-010	0.0576089	6
	44	16	39.72458	78099.61	-36717.28	1	86300.1	-25.17981	3.15744E-010	0.0576142	6
	45	16	31.6723	81289.22	-43864.51	1	92369	-28.35176	3.23534E-010	0.0576096	6
	46	16	24.93351	85134.22	-52773.15	1	100164.1	-31.79402	-8.124135E-010	0.057615	5
	47	17	19.86229	89759.21	-62785.75	1	109538.9	-34.97244	-2.090807E-009	0.0576117	5
	48	17	15.83615	95765.7	-74309.6	1	121214.6	-37.80976	8.120354E-010	0.057616	5
	49	17	12.40079	104507.7	-88330.13	1	136836	-40.20456	-1.327606E-009	0.0576161	5
	50	17	9.93114	114745.1	-102982.9	1	154181.4	-41.90775	-3.741077E-010	0.0576143	5
	51	18	7.944915	126788	-118652.2	1	173647.7	-43.10147	1.841991E-009	0.0576122	5
	52	18	6.317385	141689.4	-136809.9	1	196959	-43.99624	-8.315457E-010	0.0576346	5
	53	19	5.008013	159196.9	-156607.2	1	223314.7	-44.53017	-7.962236E-010	0.0576121	5
	54	20	3.945707	179448.9	-177701.6	1	252546.6	-44.7197	4.090106E-010	0.0576144	5
	55	21	3.158693	201800.8	-199481	1	283753.8	-44.66878	-4.776218E-010	0.0576164	5
	56	22	2.504006	225626.7	-223918.1	1	317878.5	-44.78224	-2.405767E-010	0.0576011	5
	57	23	1.998082	251483.9	-250079.5	1	354660.3	-44.83957	2.904653E-010	0.057645	5
	58	25	1.584686	277384.7	-281232.1	1	395011.1	-45.39461	1.701993E-010	0.0576252	5
	59	27	1.266892	305022.4	-315080	1	438536.3	-45.92921	1.36909E-011	0.057586	5
	60	29	0.999041	336619.8	-358718.6	1	491926.7	-46.82032	-7.143214E-011	0.057565	5
