EXPLAIN
TAG	EISPOT
TITLE	LABEL	Potentiostatic EIS	Test &Identifier
DATE	LABEL	3/9/2020	Date
TIME	LABEL	21:18:12	Time
NOTES	NOTES	1	&Notes...
	
PSTAT	PSTAT	REF600-11020	Potentiostat
VDC	POTEN	0.00000E+000	T	DC &Voltage (V)
FREQINIT	QUANT	1.00000E+006	Initial Fre&q. (Hz)
FREQFINAL	QUANT	1.00000E+000	Final Fre&q. (Hz)
PTSPERDEC	QUANT	1.00000E+001	Points/&decade
VAC	QUANT	2.50000E+001	AC &Voltage (mV rms)
AREA	QUANT	4.00000E-005	&Area (cm^2)
CONDIT	TWOPARAM	F	5.00000E+000	0.00000E+000	Conditionin&g	Time(s)	E(V)
DELAY	TWOPARAM	T	3.00000E+000	0.00000E+000	Init. De&lay	Time(s)	Stab.(mV/s)
SPEED	SELECTOR	0	&Optimize for:
ZGUESS	QUANT	1.00000E+003	E&stimated Z (ohms)
OCVCURVE	TABLE	12
	Pt	T	Vf	Vm	Ach	Over
	#	s	V vs. Ref.	V	V	bits
	0	0.258333	4.68278E-002	4.68278E-002	5.80830E-004	...........
	1	0.516667	4.68276E-002	4.68162E-002	5.81930E-004	...........
	2	0.775	4.68263E-002	4.68088E-002	5.78197E-004	...........
	3	1.03333	4.68227E-002	4.67945E-002	5.82130E-004	...........
	4	1.29167	4.68162E-002	4.67804E-002	5.79863E-004	...........
	5	1.55	4.68068E-002	4.67711E-002	5.82497E-004	...........
	6	1.80833	4.67955E-002	4.67588E-002	5.82097E-004	...........
	7	2.06667	4.67835E-002	4.67494E-002	5.82697E-004	...........
	8	2.325	4.67718E-002	4.67349E-002	5.80297E-004	...........
	9	2.58333	4.67602E-002	4.67241E-002	5.80363E-004	...........
	10	2.84167	4.67486E-002	4.67119E-002	5.78630E-004	...........
	11	3.1	4.67368E-002	4.67033E-002	5.82430E-004	...........
EOC	QUANT	0.0467368	Open Circuit (V)
PSTATMODEL	IQUANT	4	Pstat Model
PSTATSECTION	LABEL	REF600-11020	Pstat Section
PSTATSERIALNO	LABEL	11020	Pstat Serial Number
CTRLMODE	IQUANT	1	Control Mode
IESTAB	IQUANT	0	I/E Stability
CASPEED	IQUANT	1	Control Amp Speed
CONVENTION	IQUANT	1	Current Convention
ICHRANGE	IQUANT	2	Ich Range
ICHRANGEMODE	TOGGLE	F	Ich Auto Range
ICHOFFSETENABLE	TOGGLE	T	Ich Offset Enable
ICHOFFSET	QUANT	0	Ich Offset (V)
ICHFILTER	IQUANT	3	Ich Filter
VCHRANGE	IQUANT	2	Vch Range
VCHRANGEMODE	TOGGLE	F	Vch Auto Range
VCHOFFSETENABLE	TOGGLE	T	Vch Offset Enable
VCHOFFSET	QUANT	0	Vch Offset (V)
VCHFILTER	IQUANT	3	Vch Filter
ACHRANGE	IQUANT	2	Ach Range
ACHOFFSETENABLE	TOGGLE	F	Ach Offset Enable
ACHOFFSET	QUANT	0	Ach Offset (V)
ACHFILTER	IQUANT	3	Ach Filter
IERANGELOWERLIMIT	IQUANT	1	I/E Range Lower Limit
IERANGEMODE	TOGGLE	F	I/E AutoRange
IERANGE	IQUANT	7	I/E Range
POSFEEDENABLE	TOGGLE	F	Positive Feedback IR Comp
POSFEEDRESISTANCE	QUANT	0	Positive Feedback Resistance (ohm)
ACHSELECT	IQUANT	0	Ach Select
CABLEID	IQUANT	14	Cable ID
DCCALDATE	LABEL	2/27/2020	DC Calibration Date
ACCALDATE	LABEL	2/27/2020	AC Calibration Date
THERMOSELECT	IQUANT	1	Thermo Select
FRAMEWORKVERSION	QUANT	6.33	Framework Version
INSTRUMENTVERSION	LABEL	3.50	Instrument Version
ZCURVE	TABLE
	Pt	Time	Freq	Zreal	Zimag	Zsig	Zmod	Zphz	Idc	Vdc	IERange
	#	s	Hz	ohm	ohm	V	ohm	°	A	V	#
	0	1	1000078	1603.245	-1991.668	1	2556.783	-51.16677	2.709788E-008	0.0490537	8
	1	2	794390.6	1890.387	-2234.134	1	2926.588	-49.76415	4.838261E-008	0.0487557	8
	2	2	630984.4	2221.339	-2492.018	1	3338.338	-48.28677	3.431876E-008	0.0485861	8
	3	2	501234.4	2598.482	-2752.637	1	3785.382	-46.65011	4.000243E-008	0.0484945	8
	4	2	398109.4	3029.651	-3012.825	1	4272.692	-44.84045	3.00146E-008	0.0484306	8
	5	3	316265.6	3499.814	-3268.24	1	4788.538	-43.04035	3.506035E-008	0.0484097	8
	6	3	251203.1	4021.222	-3519.874	1	5344.131	-41.19645	1.087843E-008	0.0483914	8
	7	3	199546.9	4585.547	-3738.106	1	5916.138	-39.18668	3.352446E-008	0.0484048	8
	8	4	158578.1	5190.827	-3951.619	1	6523.801	-37.28092	3.459837E-008	0.0483946	8
	9	4	125953.1	5930.473	-4087.573	1	7202.691	-34.57652	4.279331E-010	0.0483353	7
	10	4	100078.1	6573.57	-4250.762	1	7828.206	-32.8885	1.325614E-009	0.0483351	7
	11	5	79453.13	7268.029	-4410.342	1	8501.492	-31.24996	9.502519E-010	0.0483287	7
	12	5	63140.62	7988.104	-4534.338	1	9185.316	-29.58082	1.84803E-009	0.0483289	7
	13	5	50203.12	8718.652	-4616.671	1	9865.52	-27.90196	1.685184E-009	0.0483276	7
	14	6	39890.62	9451.44	-4669.427	1	10541.98	-26.2914	1.921791E-009	0.0483293	7
	15	6	31640.63	10177.94	-4689.767	1	11206.45	-24.73919	1.412662E-009	0.048321	7
	16	6	25171.88	10869.87	-4703.369	1	11843.81	-23.39803	2.37903E-009	0.0483286	7
	17	7	20015.62	11528.25	-4704.208	1	12451.11	-22.19836	1.399369E-009	0.0483219	7
	18	7	15890.62	12162.31	-4720.697	1	13046.33	-21.2133	1.652996E-009	0.0483192	7
	19	7	12609.37	12917.67	-4586.321	1	13707.69	-19.54701	7.73331E-011	0.0483669	6
	20	8	10078.13	13463.99	-4706.164	1	14262.78	-19.26642	1.854678E-010	0.0483718	6
	21	8	8015.625	14022.94	-4886.222	1	14849.85	-19.21063	3.21101E-010	0.0483773	6
	22	8	6328.125	14614.06	-5142.357	1	15492.4	-19.38582	3.489222E-010	0.0483766	6
	23	9	5015.625	15215.65	-5468.979	1	16168.67	-19.77002	1.127979E-010	0.0483683	6
	24	9	3984.375	15853.85	-5877.349	1	16908.22	-20.34077	3.831478E-010	0.0483797	6
	25	9	3170.956	16537.26	-6360.617	1	17718.3	-21.03791	4.887755E-011	0.0483733	6
	26	9	2527.573	17264.21	-6926.221	1	18601.76	-21.86014	2.057755E-010	0.0483734	6
	27	10	1976.103	18118.7	-7636.978	1	19662.42	-22.85528	1.054376E-010	0.0483743	6
	28	10	1577.524	18958.74	-8391.587	1	20732.89	-23.87531	-3.191673E-011	0.0483717	6
	29	10	1265.625	19833.72	-9259.873	1	21888.85	-25.0267	1.696628E-010	0.0483757	6
	30	11	998.264	20830.48	-10352.42	1	23261.16	-26.42665	1.466369E-010	0.0483714	6
	31	11	796.875	21857.73	-11603.32	1	24746.66	-27.9619	-5.506275E-011	0.0483664	6
	32	11	627.7902	23052.97	-13197.52	1	26563.39	-29.79056	1.928055E-010	0.0483706	6
	33	12	505.5147	24251.58	-14932.82	1	28480.32	-31.62253	8.525019E-011	0.0483713	6
	34	12	397.9953	25775.31	-17228.66	1	31003.12	-33.75945	3.187676E-010	0.0483856	6
	35	12	315.5048	27510.3	-19879.85	1	33941.49	-35.85311	3.332254E-010	0.0483858	6
	36	13	252.4038	29477.89	-22854.82	1	37299.98	-37.78717	3.172844E-010	0.0483792	6
	37	13	198.6229	31979.66	-26551.71	1	41565.52	-39.70179	3.086874E-010	0.0483808	6
	38	13	158.3615	34766.12	-30560.91	1	46288.79	-41.31685	3.553428E-010	0.0483804	6
	39	14	125.558	38083.57	-35236.71	1	51884.34	-42.77645	2.192612E-010	0.0483825	6
	40	14	100.4464	41741.76	-40336.05	1	58046.29	-44.01882	3.756446E-010	0.0483804	6
	41	14	79.00281	46215.29	-46601.98	1	65632.3	-45.2387	2.24028E-010	0.0483742	6
	42	15	63.3446	50855.51	-53203.56	1	73599.6	-46.29264	1.611312E-010	0.0483707	6
	43	15	49.86702	56515.82	-61477.88	1	83507.88	-47.40807	3.621947E-010	0.0483716	6
	44	15	39.72458	62604.95	-70633.35	1	94384.59	-48.44824	4.153654E-010	0.0483739	6
	45	16	31.6723	69500.33	-81173.89	1	106862	-49.43017	5.507855E-011	0.0483687	5
	46	16	24.93351	77777.56	-94356.49	1	122280.4	-50.50142	1.972458E-010	0.0483765	5
	47	16	19.86229	86834.16	-109119.5	1	139453.4	-51.48824	-5.714275E-011	0.048375	5
	48	17	15.83615	97244.2	-126305.5	1	159403.6	-52.40689	3.680289E-010	0.0483769	5
	49	17	12.40079	110540.7	-148170.8	1	184861.6	-53.27575	1.211655E-009	0.0483753	5
	50	17	9.93114	124483.2	-171517.6	1	211930	-54.02879	1.08165E-009	0.0483786	5
	51	18	7.944915	141646.8	-198933.5	1	244209.6	-54.54796	-3.762792E-010	0.0483705	5
	52	18	6.317385	162449.8	-231446	1	282767	-54.93535	1.817945E-010	0.0483731	5
	53	19	5.008013	187931.8	-269098.2	1	328225.8	-55.07046	4.878339E-010	0.0483826	5
	54	20	3.945707	220005.5	-312482.1	1	382161.6	-54.85224	1.787184E-010	0.0483732	5
	55	21	3.158693	254165.5	-357704.3	1	438808	-54.60443	2.895947E-010	0.0483888	5
	56	22	2.504006	295740.5	-409048	1	504760	-54.13318	-1.568838E-011	0.0483829	5
	57	23	1.998082	338656.7	-464754.1	1	575051.9	-53.91995	1.350726E-011	0.0483605	5
	58	24	1.584686	388094.3	-527967.3	1	655260.7	-53.68141	1.466605E-010	0.0484027	5
	59	26	1.266892	438813.2	-600965	1	744120.9	-53.86379	1.553407E-010	0.0484144	5
	60	29	0.999041	494563.8	-692299.4	1	850806.6	-54.4588	1.486327E-010	0.0483973	5
