EXPLAIN
TAG	EISPOT
TITLE	LABEL	Potentiostatic EIS	Test &Identifier
DATE	LABEL	1/14/2020	Date
TIME	LABEL	18:21:06	Time
NOTES	NOTES	5	&Notes...
	
	
	
	
	
PSTAT	PSTAT	REF600-11020	Potentiostat
VDC	POTEN	0.00000E+000	T	DC &Voltage (V)
FREQINIT	QUANT	1.00000E+006	Initial Fre&q. (Hz)
FREQFINAL	QUANT	1.00000E+000	Final Fre&q. (Hz)
PTSPERDEC	QUANT	1.00000E+001	Points/&decade
VAC	QUANT	2.50000E+001	AC &Voltage (mV rms)
AREA	QUANT	1.00000E-001	&Area (cm^2)
CONDIT	TWOPARAM	T	5.00000E+000	0.00000E+000	Conditionin&g	Time(s)	E(V)
DELAY	TWOPARAM	T	5.00000E+000	0.00000E+000	Init. De&lay	Time(s)	Stab.(mV/s)
SPEED	SELECTOR	1	&Optimize for:
ZGUESS	QUANT	5.00000E+002	E&stimated Z (ohms)
OCVCURVE	TABLE	19
	Pt	T	Vf	Vm	Ach	Over
	#	s	V vs. Ref.	V	V	bits
	0	0.258333	8.20081E-003	8.20081E-003	5.73481E-004	...........
	1	0.516667	8.20171E-003	8.24811E-003	5.82747E-004	...........
	2	0.775	8.20908E-003	8.38834E-003	5.82881E-004	...........
	3	1.03333	8.23568E-003	8.50667E-003	5.80247E-004	...........
	4	1.29167	8.29441E-003	8.66002E-003	5.75147E-004	...........
	5	1.55	8.38776E-003	8.79197E-003	5.83114E-004	...........
	6	1.80833	8.50659E-003	8.89333E-003	5.84514E-004	...........
	7	2.06667	8.63520E-003	8.95850E-003	5.81481E-004	...........
	8	2.325	8.75847E-003	9.09843E-003	5.75347E-004	...........
	9	2.58333	8.87175E-003	9.24899E-003	5.85814E-004	...........
	10	2.84167	8.98386E-003	9.40213E-003	5.84214E-004	...........
	11	3.1	9.10642E-003	9.55776E-003	5.79114E-004	...........
	12	3.35833	9.24336E-003	9.71691E-003	5.77747E-004	...........
	13	3.61667	9.39072E-003	9.83148E-003	5.83314E-004	...........
	14	3.875	9.54010E-003	9.93959E-003	5.84514E-004	...........
	15	4.13333	9.68266E-003	1.00757E-002	5.83114E-004	...........
	16	4.39167	9.81496E-003	1.01914E-002	5.82981E-004	...........
	17	4.65	9.93934E-003	1.02770E-002	5.85947E-004	...........
	18	4.90833	1.00574E-002	1.03792E-002	5.83847E-004	...........
EOC	QUANT	0.0100574	Open Circuit (V)
PSTATMODEL	IQUANT	4	Pstat Model
PSTATSECTION	LABEL	REF600-11020	Pstat Section
PSTATSERIALNO	LABEL	11020	Pstat Serial Number
CTRLMODE	IQUANT	1	Control Mode
IESTAB	IQUANT	0	I/E Stability
CASPEED	IQUANT	1	Control Amp Speed
CONVENTION	IQUANT	1	Current Convention
ICHRANGE	IQUANT	2	Ich Range
ICHRANGEMODE	TOGGLE	F	Ich Auto Range
ICHOFFSETENABLE	TOGGLE	T	Ich Offset Enable
ICHOFFSET	QUANT	0	Ich Offset (V)
ICHFILTER	IQUANT	3	Ich Filter
VCHRANGE	IQUANT	2	Vch Range
VCHRANGEMODE	TOGGLE	F	Vch Auto Range
VCHOFFSETENABLE	TOGGLE	T	Vch Offset Enable
VCHOFFSET	QUANT	0	Vch Offset (V)
VCHFILTER	IQUANT	3	Vch Filter
ACHRANGE	IQUANT	2	Ach Range
ACHOFFSETENABLE	TOGGLE	F	Ach Offset Enable
ACHOFFSET	QUANT	0	Ach Offset (V)
ACHFILTER	IQUANT	3	Ach Filter
IERANGELOWERLIMIT	IQUANT	1	I/E Range Lower Limit
IERANGEMODE	TOGGLE	F	I/E AutoRange
IERANGE	IQUANT	7	I/E Range
POSFEEDENABLE	TOGGLE	F	Positive Feedback IR Comp
POSFEEDRESISTANCE	QUANT	0	Positive Feedback Resistance (ohm)
ACHSELECT	IQUANT	0	Ach Select
CABLEID	IQUANT	14	Cable ID
DCCALDATE	LABEL	12/22/2019	DC Calibration Date
ACCALDATE	LABEL	12/22/2019	AC Calibration Date
THERMOSELECT	IQUANT	1	Thermo Select
FRAMEWORKVERSION	QUANT	6.33	Framework Version
INSTRUMENTVERSION	LABEL	3.50	Instrument Version
ZCURVE	TABLE
	Pt	Time	Freq	Zreal	Zimag	Zsig	Zmod	Zphz	Idc	Vdc	IERange
	#	s	Hz	ohm	ohm	V	ohm	°	A	V	#
	0	2	1000078	1942.718	-930.8191	1	2154.2	-25.60059	-5.191743E-007	0.0120027	8
	1	3	794390.6	2087.672	-879.5888	1	2265.403	-22.84691	7.480204E-007	0.0117113	8
	2	4	630984.4	2223.272	-830.6276	1	2373.369	-20.48598	1.614309E-006	0.0113872	8
	3	6	501234.4	2339.482	-780.1899	1	2466.145	-18.44294	-3.371637E-006	0.0123281	8
	4	7	398109.4	2450.749	-737.4719	1	2559.303	-16.74743	-4.662568E-007	0.0117655	8
	5	8	316265.6	2547.118	-689.9237	1	2638.902	-15.15573	2.722171E-007	0.0115967	8
	6	10	251203.1	2639.109	-651.0917	1	2718.238	-13.85863	-9.333518E-007	0.011681	8
	7	11	199546.9	2712.435	-625.7721	1	2783.683	-12.99112	1.432151E-006	0.0111917	8
	8	13	158578.1	2789.499	-597.2698	1	2852.724	-12.08533	1.458407E-006	0.0112625	8
	9	14	125953.1	2864.589	-559.1069	1	2918.642	-11.04407	-4.196477E-007	0.0123436	7
	10	15	100078.1	2926.211	-553.6822	1	2978.133	-10.71453	8.717831E-008	0.0113837	7
	11	17	79453.13	2988.358	-560.2696	1	3040.425	-10.61878	8.579062E-008	0.011376	7
	12	18	63140.62	3053.942	-575.9633	1	3107.78	-10.68034	8.717361E-008	0.0113735	7
	13	19	50203.12	3122.671	-597.527	1	3179.326	-10.83267	4.225501E-008	0.0114853	7
	14	21	39890.62	3194.069	-624.9048	1	3254.625	-11.06983	5.414724E-008	0.0113924	7
	15	22	31640.63	3269.936	-660.6382	1	3336.004	-11.42194	-2.350554E-008	0.0115297	7
	16	24	25171.88	3349.304	-702.1916	1	3422.121	-11.84073	-2.627618E-008	0.0115265	7
	17	25	20015.62	3433.926	-750.5939	1	3515.002	-12.32989	5.413164E-008	0.0114107	7
	18	26	15890.62	3520.742	-810.9826	1	3612.938	-12.97149	-2.933441E-008	0.0115681	7
	19	28	12609.37	3609.452	-880.0685	1	3715.194	-13.70268	3.349756E-008	0.0114093	7
	20	29	10078.13	3702.184	-961.272	1	3824.946	-14.55543	-2.531512E-008	0.0115253	7
	21	30	8015.625	3796.848	-1063.961	1	3943.104	-15.65405	9.13273E-008	0.0113664	7
	22	32	6328.125	3904.807	-1192.651	1	4082.883	-16.98432	-9.653619E-009	0.0114899	7
	23	33	5015.625	4017.727	-1346.779	1	4237.445	-18.53162	7.145575E-009	0.0115052	7
	24	34	3984.375	4137.836	-1529.953	1	4411.626	-20.29173	1.882686E-008	0.0114363	7
	25	36	3170.956	4275.705	-1749.597	1	4619.821	-22.25413	-2.430736E-009	0.0115175	7
	26	37	2527.573	4423.4	-2008.341	1	4857.973	-24.41931	-2.591721E-009	0.0115226	7
	27	38	1976.103	4599.536	-2343.336	1	5162.068	-26.99758	2.345716E-008	0.0114766	7
	28	40	1577.524	4765.485	-2710.594	1	5482.442	-29.6311	2.358965E-009	0.0114544	7
	29	41	1265.625	4956.732	-3147.99	1	5871.886	-32.41938	3.582762E-008	0.0113976	7
	30	43	998.264	5170.782	-3727.634	1	6374.343	-35.78796	8.340177E-009	0.0115074	7
	31	44	796.875	5395.781	-4396.254	1	6959.993	-39.17169	5.65333E-008	0.011401	7
	32	45	627.7902	5663.667	-5271.605	1	7737.374	-42.94666	3.567011E-008	0.0113978	7
	33	47	505.5147	5955.832	-6253.155	1	8635.616	-46.39504	-2.417162E-008	0.0115085	7
	34	48	397.9953	6335.998	-7594.442	1	9890.42	-50.16196	8.762585E-009	0.0114982	7
	35	49	315.5048	6807.842	-9191.335	1	11437.98	-53.47338	9.107501E-010	0.0115019	6
	36	51	252.4038	7379.335	-11056.75	1	13293.09	-56.28063	7.697184E-010	0.0114979	6
	37	52	198.6229	8171.388	-13487.05	1	15769.34	-58.78961	9.117314E-010	0.0115052	6
	38	53	158.3615	9142.444	-16257.75	1	18652.04	-60.64904	8.013572E-010	0.0114976	6
	39	55	125.558	10426.02	-19642.13	1	22237.69	-62.04069	1.063027E-009	0.0114992	6
	40	56	100.4464	12017.83	-23503.33	1	26397.62	-62.91822	1.056304E-009	0.0114977	6
	41	58	79.00281	14206.83	-28401.49	1	31756.55	-63.42513	5.549778E-010	0.0114982	6
	42	59	63.3446	16671.04	-33578.44	1	37489.14	-63.59649	3.022398E-010	0.0114961	6
	43	60	49.86702	20343.44	-40100.41	1	44965.53	-63.10076	3.767094E-010	0.0114894	6
	44	62	39.72458	24477.92	-47294.07	1	53253.14	-62.63534	5.183369E-010	0.0115027	6
	45	63	31.6723	29563.73	-55251.07	1	62663.35	-61.84967	8.295113E-010	0.0114953	6
	46	65	24.93351	36020.76	-64801.09	1	74139.58	-60.93178	5.911565E-010	0.0114925	6
	47	66	19.86229	43391	-74815.11	1	86487.45	-59.88728	2.212338E-010	0.0114938	6
	48	67	15.83615	51744.89	-86098.47	1	100451.4	-58.99427	-4.767869E-010	0.0114996	6
	49	69	12.40079	61838.7	-98967.2	1	116698.4	-58.00119	4.670456E-010	0.0114879	5
	50	70	9.93114	71996.6	-112347.3	1	133436.9	-57.34663	8.912519E-011	0.0114925	5
	51	72	7.944915	83025.26	-127534	1	152177.9	-56.93568	5.763213E-010	0.0114934	5
	52	73	6.317385	95014.5	-145794.4	1	174022.3	-56.90764	8.371218E-011	0.0115075	5
	53	75	5.008013	107719.7	-168101.5	1	199653.8	-57.34819	8.800071E-011	0.0114957	5
	54	78	3.945707	121887	-195441.8	1	230334.4	-58.05034	-2.096499E-010	0.0114845	5
	55	80	3.158693	136646.2	-226929.6	1	264894.8	-58.94565	1.253341E-010	0.0115023	5
	56	84	2.504006	154408.4	-266767.2	1	308231.6	-59.93718	-3.317425E-010	0.0114985	5
	57	86	1.998082	174115.4	-313343.5	1	358469.4	-60.9404	-6.649419E-011	0.011458	5
	58	89	1.584686	197951.4	-370711.1	1	420251.7	-61.89878	-6.442563E-011	0.0115247	5
	59	93	1.266892	225995.8	-439479.3	1	494182.3	-62.78617	-1.252259E-010	0.0114679	5
	60	97	0.999041	263523	-525473.3	1	587849.1	-63.3664	1.122928E-010	0.01154	5
