EXPLAIN
TAG	EISPOT
TITLE	LABEL	Potentiostatic EIS	Test &Identifier
DATE	LABEL	6/1/2020	Date
TIME	LABEL	13:28:52	Time
NOTES	NOTES	1	&Notes...
	
PSTAT	PSTAT	REF600-11020	Potentiostat
VDC	POTEN	0.00000E+000	T	DC &Voltage (V)
FREQINIT	QUANT	1.00000E+006	Initial Fre&q. (Hz)
FREQFINAL	QUANT	1.00000E+000	Final Fre&q. (Hz)
PTSPERDEC	QUANT	1.00000E+001	Points/&decade
VAC	QUANT	2.50000E+001	AC &Voltage (mV rms)
AREA	QUANT	4.00000E-004	&Area (cm^2)
CONDIT	TWOPARAM	F	5.00000E+000	0.00000E+000	Conditionin&g	Time(s)	E(V)
DELAY	TWOPARAM	T	3.00000E+000	0.00000E+000	Init. De&lay	Time(s)	Stab.(mV/s)
SPEED	SELECTOR	0	&Optimize for:
ZGUESS	QUANT	1.00000E+003	E&stimated Z (ohms)
OCVCURVE	TABLE	12
	Pt	T	Vf	Vm	Ach	Over
	#	s	V vs. Ref.	V	V	bits
	0	0.258333	2.84692E-002	2.84692E-002	5.49264E-004	...........
	1	0.516667	2.84693E-002	2.84753E-002	5.49264E-004	...........
	2	0.775	2.84699E-002	2.84775E-002	5.45197E-004	...........
	3	1.03333	2.84715E-002	2.84774E-002	5.58264E-004	...........
	4	1.29167	2.84737E-002	2.84769E-002	5.50064E-004	...........
	5	1.55	2.84756E-002	2.84764E-002	5.42897E-004	...........
	6	1.80833	2.84766E-002	2.84743E-002	5.46930E-004	...........
	7	2.06667	2.84766E-002	2.84719E-002	5.55564E-004	...........
	8	2.325	2.84757E-002	2.84664E-002	5.52464E-004	...........
	9	2.58333	2.84738E-002	2.84641E-002	5.44397E-004	...........
	10	2.84167	2.84711E-002	2.84620E-002	5.48264E-004	...........
	11	3.1	2.84679E-002	2.84595E-002	5.52064E-004	...........
EOC	QUANT	0.0284679	Open Circuit (V)
PSTATMODEL	IQUANT	4	Pstat Model
PSTATSECTION	LABEL	REF600-11020	Pstat Section
PSTATSERIALNO	LABEL	11020	Pstat Serial Number
CTRLMODE	IQUANT	1	Control Mode
IESTAB	IQUANT	0	I/E Stability
CASPEED	IQUANT	1	Control Amp Speed
CONVENTION	IQUANT	1	Current Convention
ICHRANGE	IQUANT	2	Ich Range
ICHRANGEMODE	TOGGLE	F	Ich Auto Range
ICHOFFSETENABLE	TOGGLE	T	Ich Offset Enable
ICHOFFSET	QUANT	0	Ich Offset (V)
ICHFILTER	IQUANT	3	Ich Filter
VCHRANGE	IQUANT	2	Vch Range
VCHRANGEMODE	TOGGLE	F	Vch Auto Range
VCHOFFSETENABLE	TOGGLE	T	Vch Offset Enable
VCHOFFSET	QUANT	0	Vch Offset (V)
VCHFILTER	IQUANT	3	Vch Filter
ACHRANGE	IQUANT	2	Ach Range
ACHOFFSETENABLE	TOGGLE	F	Ach Offset Enable
ACHOFFSET	QUANT	0	Ach Offset (V)
ACHFILTER	IQUANT	3	Ach Filter
IERANGELOWERLIMIT	IQUANT	1	I/E Range Lower Limit
IERANGEMODE	TOGGLE	F	I/E AutoRange
IERANGE	IQUANT	7	I/E Range
POSFEEDENABLE	TOGGLE	F	Positive Feedback IR Comp
POSFEEDRESISTANCE	QUANT	0	Positive Feedback Resistance (ohm)
ACHSELECT	IQUANT	0	Ach Select
CABLEID	IQUANT	14	Cable ID
DCCALDATE	LABEL	2/27/2020	DC Calibration Date
ACCALDATE	LABEL	2/27/2020	AC Calibration Date
THERMOSELECT	IQUANT	1	Thermo Select
FRAMEWORKVERSION	QUANT	6.33	Framework Version
INSTRUMENTVERSION	LABEL	3.50	Instrument Version
ZCURVE	TABLE
	Pt	Time	Freq	Zreal	Zimag	Zsig	Zmod	Zphz	Idc	Vdc	IERange
	#	s	Hz	ohm	ohm	V	ohm	°	A	V	#
	0	1	1000078	1930.772	-1597.663	1	2506.074	-39.60687	3.130199E-008	0.0309445	8
	1	2	794390.6	2236.462	-1632.69	1	2769.014	-36.13066	5.809647E-008	0.0305893	8
	2	2	630984.4	2538.864	-1627.065	1	3015.489	-32.65432	6.53303E-008	0.0304418	8
	3	2	501234.4	2830.99	-1592.341	1	3248.085	-29.35636	4.932208E-008	0.0303082	8
	4	3	398109.4	3099.193	-1534.826	1	3458.423	-26.34618	6.115923E-008	0.0302588	8
	5	3	316265.6	3348.263	-1460.311	1	3652.858	-23.56394	5.381414E-008	0.0302075	8
	6	3	251203.1	3568.984	-1372.977	1	3823.966	-21.04157	6.033112E-008	0.0302019	8
	7	3	199546.9	3767.954	-1292.874	1	3983.591	-18.9383	4.061273E-008	0.030191	8
	8	4	158578.1	3940.286	-1208.997	1	4121.593	-17.05756	4.218125E-008	0.0301938	8
	9	4	125953.1	4139.524	-1066.381	1	4274.673	-14.44585	-5.111069E-010	0.0301277	7
	10	4	100078.1	4260.665	-1010.084	1	4378.76	-13.33699	2.148127E-009	0.0301164	7
	11	5	79453.13	4384.483	-972.682	1	4491.081	-12.50829	1.94029E-009	0.0301082	7
	12	5	63140.62	4500.385	-945.4919	1	4598.632	-11.86479	1.832471E-009	0.0301094	7
	13	5	50203.12	4610.399	-928.7571	1	4703.017	-11.3897	1.398027E-009	0.0301098	7
	14	6	39890.62	4716.367	-924.3416	1	4806.093	-11.08862	2.368512E-009	0.0301112	7
	15	6	31640.63	4821.58	-933.0818	1	4911.036	-10.95261	1.841902E-009	0.0301018	7
	16	6	25171.88	4926.345	-955.881	1	5018.225	-10.98091	2.477919E-009	0.0301023	7
	17	7	20015.62	5032.626	-992.77	1	5129.612	-11.15928	1.593437E-009	0.0301014	7
	18	7	15890.62	5144.498	-1046.226	1	5249.804	-11.49536	2.682681E-009	0.030108	7
	19	7	12609.37	5261.19	-1114.723	1	5377.986	-11.96272	2.371741E-009	0.0301038	7
	20	8	10078.13	5381.394	-1198.563	1	5513.252	-12.55618	2.792091E-009	0.0301022	7
	21	8	8015.625	5510.642	-1301.798	1	5662.319	-13.29151	1.952929E-009	0.0300959	7
	22	8	6328.125	5656.209	-1431.781	1	5834.612	-14.20514	2.498307E-009	0.0300963	7
	23	9	5015.625	5807.387	-1583.12	1	6019.303	-15.24858	2.760854E-009	0.0301011	7
	24	9	3984.375	5966.694	-1759.697	1	6220.77	-16.43184	2.878769E-009	0.0300879	7
	25	9	3170.956	6133.971	-1968.991	1	6442.245	-17.79652	2.443571E-009	0.0300932	7
	26	10	2527.573	6308.689	-2218.749	1	6687.481	-19.37663	3.901607E-009	0.0300946	7
	27	10	1976.103	6506.545	-2545.825	1	6986.87	-21.36899	2.507015E-009	0.030093	7
	28	10	1577.524	6699.255	-2916.185	1	7306.446	-23.52349	3.204315E-009	0.0300981	7
	29	10	1265.625	6898.724	-3357.04	1	7672.164	-25.94837	3.291039E-009	0.0300871	7
	30	11	998.264	7129.78	-3943.23	1	8147.566	-28.94543	3.63753E-009	0.0300906	7
	31	11	796.875	7370.332	-4620.109	1	8698.689	-32.08164	3.010052E-009	0.0300882	7
	32	11	627.7902	7656.901	-5512.311	1	9434.707	-35.75064	3.008637E-009	0.0300914	7
	33	12	505.5147	7957.181	-6505.574	1	10278.09	-39.2685	-3.414685E-010	0.030144	6
	34	12	397.9953	8326.989	-7854.292	1	11446.77	-43.32672	5.488413E-010	0.030161	6
	35	12	315.5048	8753.081	-9471.587	1	12896.8	-47.25771	4.897953E-010	0.0301596	6
	36	13	252.4038	9237.633	-11371.84	1	14651.03	-50.91217	4.151063E-010	0.0301554	6
	37	13	198.6229	9867.62	-13876.37	1	17027.14	-54.58302	4.387501E-010	0.0301575	6
	38	13	158.3615	10593.87	-16778.79	1	19843.34	-57.73231	3.54875E-010	0.0301535	6
	39	14	125.558	11510.83	-20409.84	1	23432.05	-60.57769	3.850699E-010	0.0301566	6
	40	14	100.4464	12604.3	-24657.08	1	27691.87	-62.92461	3.520064E-010	0.0301507	6
	41	14	79.00281	14078.02	-30229.6	1	33346.95	-65.02847	2.920261E-010	0.0301501	6
	42	15	63.3446	15787.09	-36456.48	1	39727.92	-66.58549	1.783631E-010	0.0301471	6
	43	15	49.86702	18121.07	-44637.52	1	48175.52	-67.90479	3.801766E-010	0.0301461	6
	44	15	39.72458	20950.56	-54066.99	1	57984.18	-68.81902	4.411113E-010	0.0301479	6
	45	16	31.6723	24552.52	-65391.46	1	69848.91	-69.42036	2.713931E-010	0.0301486	6
	46	16	24.93351	29434.78	-79802.61	1	85057.99	-69.75377	7.407027E-010	0.0301443	6
	47	16	19.86229	35451.33	-96284.3	1	102603.4	-69.78658	1.548009E-009	0.0301552	6
	48	17	15.83615	43276.45	-115826.3	1	123647	-69.5127	-3.338882E-011	0.0301488	5
	49	17	12.40079	54431.91	-140893.9	1	151042.8	-68.87683	9.064346E-010	0.0301505	5
	50	17	9.93114	67456.88	-167614	1	180679	-68.0775	7.255427E-010	0.0301535	5
	51	18	7.944915	84577.23	-198516.1	1	215782.2	-66.92371	-6.108196E-010	0.0301516	5
	52	18	6.317385	106858.8	-234633.1	1	257820.7	-65.51408	3.643344E-010	0.030138	5
	53	19	5.008013	135444.9	-275569.3	1	307056.7	-63.82545	5.366469E-010	0.0301571	5
	54	20	3.945707	172145	-321087.6	1	364322.9	-61.80287	3.946621E-011	0.0301414	5
	55	21	3.158693	212937.4	-367223.8	1	424494.6	-59.89238	3.638609E-010	0.0301537	5
	56	22	2.504006	262353.3	-417065.2	1	492719.7	-57.82821	1.010651E-010	0.0301489	5
	57	23	1.998082	316077.9	-468919.9	1	565500.8	-56.01786	-5.55E-011	0.0301071	5
	58	25	1.584686	376083.9	-523500.1	1	644586.3	-54.30643	5.941579E-011	0.0301522	5
	59	26	1.266892	440309.3	-581735.3	1	729580.9	-52.87831	1.337177E-010	0.0301733	5
	60	29	0.999041	512070.5	-651904.7	1	828972.8	-51.8504	1.848827E-010	0.0301807	5
