EXPLAIN
TAG	EISPOT
TITLE	LABEL	Potentiostatic EIS	Test &Identifier
DATE	LABEL	3/9/2020	Date
TIME	LABEL	21:15:59	Time
NOTES	NOTES	1	&Notes...
	
PSTAT	PSTAT	REF600-11020	Potentiostat
VDC	POTEN	0.00000E+000	T	DC &Voltage (V)
FREQINIT	QUANT	1.00000E+006	Initial Fre&q. (Hz)
FREQFINAL	QUANT	1.00000E+000	Final Fre&q. (Hz)
PTSPERDEC	QUANT	1.00000E+001	Points/&decade
VAC	QUANT	2.50000E+001	AC &Voltage (mV rms)
AREA	QUANT	4.00000E-005	&Area (cm^2)
CONDIT	TWOPARAM	F	5.00000E+000	0.00000E+000	Conditionin&g	Time(s)	E(V)
DELAY	TWOPARAM	T	3.00000E+000	0.00000E+000	Init. De&lay	Time(s)	Stab.(mV/s)
SPEED	SELECTOR	0	&Optimize for:
ZGUESS	QUANT	1.00000E+003	E&stimated Z (ohms)
OCVCURVE	TABLE	12
	Pt	T	Vf	Vm	Ach	Over
	#	s	V vs. Ref.	V	V	bits
	0	0.258333	4.58427E-002	4.58427E-002	5.81263E-004	...........
	1	0.516667	4.58423E-002	4.58217E-002	5.81697E-004	...........
	2	0.775	4.58398E-002	4.57990E-002	5.78897E-004	...........
	3	1.03333	4.58325E-002	4.57781E-002	5.77063E-004	...........
	4	1.29167	4.58192E-002	4.57581E-002	5.84730E-004	...........
	5	1.55	4.58013E-002	4.57444E-002	5.80663E-004	...........
	6	1.80833	4.57818E-002	4.57288E-002	5.83930E-004	...........
	7	2.06667	4.57630E-002	4.57115E-002	5.82830E-004	...........
	8	2.325	4.57456E-002	4.56965E-002	5.82297E-004	...........
	9	2.58333	4.57293E-002	4.56810E-002	5.78663E-004	...........
	10	2.84167	4.57134E-002	4.56662E-002	5.84930E-004	...........
	11	3.1	4.56978E-002	4.56536E-002	5.78797E-004	...........
EOC	QUANT	0.0456978	Open Circuit (V)
PSTATMODEL	IQUANT	4	Pstat Model
PSTATSECTION	LABEL	REF600-11020	Pstat Section
PSTATSERIALNO	LABEL	11020	Pstat Serial Number
CTRLMODE	IQUANT	1	Control Mode
IESTAB	IQUANT	0	I/E Stability
CASPEED	IQUANT	1	Control Amp Speed
CONVENTION	IQUANT	1	Current Convention
ICHRANGE	IQUANT	2	Ich Range
ICHRANGEMODE	TOGGLE	F	Ich Auto Range
ICHOFFSETENABLE	TOGGLE	T	Ich Offset Enable
ICHOFFSET	QUANT	0	Ich Offset (V)
ICHFILTER	IQUANT	3	Ich Filter
VCHRANGE	IQUANT	2	Vch Range
VCHRANGEMODE	TOGGLE	F	Vch Auto Range
VCHOFFSETENABLE	TOGGLE	T	Vch Offset Enable
VCHOFFSET	QUANT	0	Vch Offset (V)
VCHFILTER	IQUANT	3	Vch Filter
ACHRANGE	IQUANT	2	Ach Range
ACHOFFSETENABLE	TOGGLE	F	Ach Offset Enable
ACHOFFSET	QUANT	0	Ach Offset (V)
ACHFILTER	IQUANT	3	Ach Filter
IERANGELOWERLIMIT	IQUANT	1	I/E Range Lower Limit
IERANGEMODE	TOGGLE	F	I/E AutoRange
IERANGE	IQUANT	7	I/E Range
POSFEEDENABLE	TOGGLE	F	Positive Feedback IR Comp
POSFEEDRESISTANCE	QUANT	0	Positive Feedback Resistance (ohm)
ACHSELECT	IQUANT	0	Ach Select
CABLEID	IQUANT	14	Cable ID
DCCALDATE	LABEL	2/27/2020	DC Calibration Date
ACCALDATE	LABEL	2/27/2020	AC Calibration Date
THERMOSELECT	IQUANT	1	Thermo Select
FRAMEWORKVERSION	QUANT	6.33	Framework Version
INSTRUMENTVERSION	LABEL	3.50	Instrument Version
ZCURVE	TABLE
	Pt	Time	Freq	Zreal	Zimag	Zsig	Zmod	Zphz	Idc	Vdc	IERange
	#	s	Hz	ohm	ohm	V	ohm	°	A	V	#
	0	1	1000078	1856.901	-1990.108	1	2721.876	-46.98314	5.210942E-008	0.0482046	8
	1	1	794390.6	2225.143	-2142.294	1	3088.8	-43.91325	-2.106013E-008	0.0478455	8
	2	1	630984.4	2628.13	-2249.898	1	3459.64	-40.56628	1.665623E-008	0.0476753	8
	3	2	501234.4	3052.878	-2315.803	1	3831.842	-37.18264	4.554855E-008	0.0475456	8
	4	2	398109.4	3481.125	-2336.146	1	4192.351	-33.86515	3.254252E-008	0.047466	8
	5	2	316265.6	3897.245	-2308.229	1	4529.507	-30.63706	1.72156E-008	0.047428	8
	6	3	251203.1	4298.19	-2236.501	1	4845.242	-27.48956	2.628538E-008	0.0474099	8
	7	3	199546.9	4671.53	-2145.849	1	5140.804	-24.6715	3.217885E-008	0.0474272	8
	8	3	158578.1	5012.438	-2037.035	1	5410.549	-22.11663	1.989098E-008	0.0474501	8
	9	4	125953.1	5385.337	-1832.903	1	5688.707	-18.79604	-7.040383E-010	0.0473462	7
	10	4	100078.1	5634.069	-1708.277	1	5887.355	-16.86756	1.302841E-009	0.047351	7
	11	4	79453.13	5873.216	-1593.642	1	6085.586	-15.18115	1.110637E-009	0.0473378	7
	12	4	63140.62	6080.706	-1485.029	1	6259.417	-13.72412	1.774093E-009	0.0473412	7
	13	5	50203.12	6262.673	-1385.838	1	6414.173	-12.47764	5.007967E-010	0.0473353	7
	14	5	39890.62	6424.226	-1302.602	1	6554.956	-11.46212	5.809634E-010	0.0473247	7
	15	5	31640.63	6570.3	-1237.857	1	6685.891	-10.66957	1.43344E-009	0.0473358	7
	16	6	25171.88	6697.985	-1196.006	1	6803.928	-10.12415	1.492832E-009	0.0473339	7
	17	6	20015.62	6818.553	-1176.485	1	6919.305	-9.78952	9.397674E-010	0.0473306	7
	18	6	15890.62	6936.694	-1181.349	1	7036.569	-9.66499	1.923189E-009	0.047335	7
	19	7	12609.37	7053.253	-1211.258	1	7156.502	-9.74438	2.293392E-009	0.047336	7
	20	7	10078.13	7166.619	-1264.81	1	7277.374	-10.00885	2.871603E-009	0.0473376	7
	21	7	8015.625	7289.724	-1346.38	1	7413.017	-10.46435	2.28464E-009	0.0473327	7
	22	8	6328.125	7423.572	-1459.029	1	7565.592	-11.11919	1.383422E-009	0.0473321	7
	23	8	5015.625	7567.178	-1601.741	1	7734.841	-11.95136	1.692226E-009	0.0473341	7
	24	8	3984.375	7720.043	-1775.68	1	7921.623	-12.95326	9.368146E-010	0.0473267	7
	25	9	3170.956	7885.026	-1984.299	1	8130.872	-14.1254	1.639092E-009	0.0473248	7
	26	9	2527.573	8064.657	-2236.33	1	8368.982	-15.4987	2.352785E-009	0.0473316	7
	27	9	1976.103	8270.686	-2561.389	1	8658.23	-17.20749	2.248553E-009	0.0473281	7
	28	10	1577.524	8472.323	-2923.374	1	8962.498	-19.03699	1.458596E-009	0.0473212	7
	29	10	1265.625	8693.155	-3339.917	1	9312.679	-21.01681	-5.461768E-010	0.0473755	6
	30	10	998.264	8940.954	-3910.515	1	9758.73	-23.62318	-2.450532E-010	0.0473789	6
	31	11	796.875	9192.165	-4572.041	1	10266.42	-26.44504	-6.983897E-010	0.0473718	6
	32	11	627.7902	9494.237	-5436.175	1	10940.41	-29.79443	-3.513116E-011	0.0473742	6
	33	11	505.5147	9799.66	-6393.438	1	11700.83	-33.12101	-1.645725E-010	0.047377	6
	34	11	397.9953	10192.77	-7690.82	1	12768.76	-37.0359	4.105983E-010	0.04738	6
	35	12	315.5048	10643.65	-9242.369	1	14096.4	-40.96929	3.608477E-010	0.0473865	6
	36	12	252.4038	11160.65	-11063.3	1	15714.86	-44.74902	3.563208E-010	0.0473845	6
	37	12	198.6229	11837.74	-13453.46	1	17920.04	-48.65537	4.530116E-010	0.0473814	6
	38	13	158.3615	12628.85	-16209.46	1	20548.34	-52.07771	3.399249E-010	0.0473828	6
	39	13	125.558	13634.8	-19632.53	1	23902.8	-55.22001	4.482761E-010	0.0473818	6
	40	13	100.4464	14837.27	-23600.71	1	27877.2	-57.84328	4.517961E-010	0.0473797	6
	41	14	79.00281	16449.47	-28752.48	1	33125.37	-60.22586	2.477522E-010	0.0473811	6
	42	14	63.3446	18291.68	-34442.78	1	38998.6	-62.02837	1.858627E-010	0.0473787	6
	43	14	49.86702	20747.65	-41831.23	1	46693.86	-63.61929	4.114331E-010	0.0473792	6
	44	15	39.72458	23615.13	-50276.29	1	55546.2	-64.84022	4.422847E-010	0.0473831	6
	45	15	31.6723	27115.22	-60361.07	1	66171.7	-65.80957	2.267432E-010	0.047381	6
	46	15	24.93351	31708.86	-73185.95	1	79759.85	-66.57464	7.285454E-010	0.0473802	6
	47	16	19.86229	37150.86	-87857.58	1	95389.4	-67.07877	1.560198E-009	0.047385	6
	48	16	15.83615	44184.64	-105386.9	1	114274.6	-67.25359	-6.706756E-010	0.0473822	5
	49	16	12.40079	54008.13	-127791.3	1	138735.3	-67.08974	3.958951E-010	0.04738	5
	50	17	9.93114	65393.2	-151826.6	1	165310.6	-66.69798	2.120078E-010	0.0473887	5
	51	17	7.944915	80017.4	-179467.7	1	196498	-65.96984	-8.609226E-010	0.0473876	5
	52	17	6.317385	98774.4	-212170.3	1	234035.6	-65.036	3.661653E-010	0.0473768	5
	53	18	5.008013	122405.3	-249731.1	1	278116.3	-63.88829	4.764795E-010	0.0473943	5
	54	19	3.945707	151926.7	-292285.6	1	329412.5	-62.5351	-5.90604E-011	0.0473834	5
	55	20	3.158693	184561.2	-337052	1	384274.5	-61.29601	3.148244E-010	0.0473881	5
	56	21	2.504006	223716.8	-387900	1	447789.7	-60.02631	1.156005E-010	0.0473871	5
	57	22	1.998082	266868.3	-443493.3	1	517595.3	-58.96293	-5.403348E-011	0.0473447	5
	58	24	1.584686	315639.9	-506165.3	1	596516.4	-58.05272	5.129863E-011	0.0473864	5
	59	26	1.266892	370078.6	-575272.7	1	684029.9	-57.24642	1.057318E-010	0.0474095	5
	60	28	0.999041	433669.9	-660760.2	1	790362.9	-56.72232	1.423902E-010	0.0474187	5
