EXPLAIN
TAG	EISPOT
TITLE	LABEL	Potentiostatic EIS	Test &Identifier
DATE	LABEL	3/20/2020	Date
TIME	LABEL	15:34:46	Time
NOTES	NOTES	1	&Notes...
	
PSTAT	PSTAT	REF600-11020	Potentiostat
VDC	POTEN	0.00000E+000	T	DC &Voltage (V)
FREQINIT	QUANT	1.00000E+006	Initial Fre&q. (Hz)
FREQFINAL	QUANT	1.00000E+000	Final Fre&q. (Hz)
PTSPERDEC	QUANT	1.00000E+001	Points/&decade
VAC	QUANT	2.50000E+001	AC &Voltage (mV rms)
AREA	QUANT	4.00000E-004	&Area (cm^2)
CONDIT	TWOPARAM	F	5.00000E+000	0.00000E+000	Conditionin&g	Time(s)	E(V)
DELAY	TWOPARAM	T	3.00000E+000	0.00000E+000	Init. De&lay	Time(s)	Stab.(mV/s)
SPEED	SELECTOR	1	&Optimize for:
ZGUESS	QUANT	1.00000E+003	E&stimated Z (ohms)
OCVCURVE	TABLE	12
	Pt	T	Vf	Vm	Ach	Over
	#	s	V vs. Ref.	V	V	bits
	0	0.258333	2.44273E-002	2.44273E-002	5.92696E-004	...........
	1	0.516667	2.44716E-002	2.67500E-002	5.97596E-004	...........
	2	0.775	2.47030E-002	2.67971E-002	5.93230E-004	...........
	3	1.03333	2.51348E-002	2.23558E-002	5.92496E-004	...........
	4	1.29167	2.53493E-002	2.23178E-002	5.93430E-004	...........
	5	1.55	2.48726E-002	2.09482E-002	5.89696E-004	...........
	6	1.80833	2.38099E-002	2.20938E-002	5.92096E-004	...........
	7	2.06667	2.27475E-002	2.32410E-002	5.88663E-004	...........
	8	2.325	2.22705E-002	2.69673E-002	5.88763E-004	...........
	9	2.58333	2.26474E-002	2.44384E-002	5.90796E-004	...........
	10	2.84167	2.35265E-002	2.12793E-002	5.87897E-004	...........
	11	3.1	2.40228E-002	2.02410E-002	5.88830E-004	...........
EOC	QUANT	0.0240228	Open Circuit (V)
PSTATMODEL	IQUANT	4	Pstat Model
PSTATSECTION	LABEL	REF600-11020	Pstat Section
PSTATSERIALNO	LABEL	11020	Pstat Serial Number
CTRLMODE	IQUANT	1	Control Mode
IESTAB	IQUANT	0	I/E Stability
CASPEED	IQUANT	1	Control Amp Speed
CONVENTION	IQUANT	1	Current Convention
ICHRANGE	IQUANT	2	Ich Range
ICHRANGEMODE	TOGGLE	F	Ich Auto Range
ICHOFFSETENABLE	TOGGLE	T	Ich Offset Enable
ICHOFFSET	QUANT	0	Ich Offset (V)
ICHFILTER	IQUANT	3	Ich Filter
VCHRANGE	IQUANT	2	Vch Range
VCHRANGEMODE	TOGGLE	F	Vch Auto Range
VCHOFFSETENABLE	TOGGLE	T	Vch Offset Enable
VCHOFFSET	QUANT	0	Vch Offset (V)
VCHFILTER	IQUANT	3	Vch Filter
ACHRANGE	IQUANT	2	Ach Range
ACHOFFSETENABLE	TOGGLE	F	Ach Offset Enable
ACHOFFSET	QUANT	0	Ach Offset (V)
ACHFILTER	IQUANT	3	Ach Filter
IERANGELOWERLIMIT	IQUANT	1	I/E Range Lower Limit
IERANGEMODE	TOGGLE	F	I/E AutoRange
IERANGE	IQUANT	7	I/E Range
POSFEEDENABLE	TOGGLE	F	Positive Feedback IR Comp
POSFEEDRESISTANCE	QUANT	0	Positive Feedback Resistance (ohm)
ACHSELECT	IQUANT	0	Ach Select
CABLEID	IQUANT	14	Cable ID
DCCALDATE	LABEL	2/27/2020	DC Calibration Date
ACCALDATE	LABEL	2/27/2020	AC Calibration Date
THERMOSELECT	IQUANT	1	Thermo Select
FRAMEWORKVERSION	QUANT	6.33	Framework Version
INSTRUMENTVERSION	LABEL	3.50	Instrument Version
ZCURVE	TABLE
	Pt	Time	Freq	Zreal	Zimag	Zsig	Zmod	Zphz	Idc	Vdc	IERange
	#	s	Hz	ohm	ohm	V	ohm	°	A	V	#
	0	1	1000078	577.7601	-4479.119	1	4516.228	-82.65002	1.42827E-007	0.0262832	8
	1	3	794390.6	696.8019	-5572.186	1	5615.584	-82.87216	-1.248716E-007	0.026029	8
	2	4	630984.4	829.9	-6907.089	1	6956.768	-83.14864	5.062728E-007	0.0257954	8
	3	5	501234.4	1004.387	-8556.294	1	8615.043	-83.30493	-4.612655E-007	0.025824	8
	4	7	398109.4	1244.744	-10601.13	1	10673.95	-83.30322	-3.40861E-007	0.0257937	8
	5	8	316265.6	1496.096	-13156.93	1	13241.72	-83.51266	2.577915E-007	0.0256196	8
	6	9	251203.1	1861.873	-16385.13	1	16490.57	-83.51718	-6.379077E-008	0.0256626	8
	7	11	199546.9	2356.063	-20304.26	1	20440.5	-83.38113	4.126357E-007	0.0255753	8
	8	12	158578.1	2961.734	-25187.33	1	25360.86	-83.29349	5.827434E-007	0.0255904	8
	9	14	125953.1	4043.185	-31274.72	1	31534.99	-82.63368	-1.909953E-008	0.0256059	7
	10	15	100078.1	5060.456	-38740.08	1	39069.2	-82.55783	3.434955E-009	0.0255691	7
	11	16	79453.13	6510.843	-48040.87	1	48480.06	-82.28189	7.999327E-009	0.0255498	7
	12	18	63140.62	8420.661	-59538.75	1	60131.28	-81.94996	6.923398E-009	0.0255438	7
	13	19	50203.12	11000.54	-73569.44	1	74387.33	-81.4958	1.361142E-010	0.0255578	7
	14	20	39890.62	14312.16	-91112.18	1	92229.43	-81.07276	3.963418E-009	0.0255669	7
	15	22	31640.63	19670	-112579.6	1	114285.1	-80.08928	7.722868E-009	0.0255319	7
	16	23	25171.88	26405.86	-138758.1	1	141248.3	-79.22536	-3.173997E-010	0.0255414	7
	17	24	20015.62	36016.79	-169980.7	1	173754.6	-78.03668	2.643359E-010	0.0255538	7
	18	26	15890.62	47854.73	-209376.2	1	214775.3	-77.12569	2.051811E-008	0.025528	7
	19	27	12609.37	70308.06	-254718	1	264243.2	-74.56926	1.09938E-010	0.0255933	6
	20	28	10078.13	94755.09	-307891.1	1	322141.9	-72.89397	3.160857E-009	0.0255597	6
	21	30	8015.625	129941	-369907.9	1	392067	-70.64468	-1.412345E-010	0.0256168	6
	22	31	6328.125	179343.1	-442107.1	1	477098.2	-67.91981	-5.37879E-010	0.025616	6
	23	32	5015.625	244179.8	-521582.6	1	575909.9	-64.91327	5.369765E-010	0.0255898	6
	24	34	3984.375	330760.7	-600969.9	1	685979.2	-61.17258	-8.495593E-010	0.0256065	6
	25	35	3170.956	433203.8	-683229.2	1	808991.8	-57.62312	2.246624E-009	0.0255883	6
	26	37	2527.573	557375.8	-751322.1	1	935495.9	-53.42976	4.489822E-010	0.0256099	6
	27	38	1976.103	720551	-803541.8	1	1079293	-48.11683	-8.922501E-010	0.0256055	6
	28	40	1577.524	873705.8	-845707.9	1	1215970	-44.06711	2.780885E-009	0.0255584	6
	29	41	1265.625	1043174	-839425	1	1338972	-38.82307	1.959951E-010	0.0255917	5
	30	43	998.264	1205324	-829642.4	1	1463254	-34.54021	3.809729E-010	0.0255876	5
	31	44	796.875	1346647	-804180.1	1	1568491	-30.84448	2.161986E-011	0.0256012	5
	32	45	627.7902	1482466	-767185	1	1669215	-27.36184	3.715784E-010	0.0255762	5
	33	47	505.5147	1590526	-732250.3	1	1750989	-24.72052	-1.40221E-011	0.0256051	5
	34	48	397.9953	1698275	-689501	1	1832907	-22.09719	1.094522E-010	0.0256117	5
	35	49	315.5048	1788079	-654569.2	1	1904124	-20.10636	-5.261175E-010	0.0256126	5
	36	51	252.4038	1867345	-625590.8	1	1969350	-18.52169	1.129036E-009	0.0256044	5
	37	52	198.6229	1946658	-605491.6	1	2038651	-17.27787	8.264993E-010	0.0256083	5
	38	53	158.3615	2017104	-590727.3	1	2101825	-16.32315	5.648282E-010	0.0256032	5
	39	55	125.558	2099191	-571671.7	1	2175640	-15.23391	1.28306E-010	0.0256	4
	40	56	100.4464	2159111	-587893.9	1	2237718	-15.23154	1.70917E-010	0.0255985	4
	41	58	79.00281	2238277	-578261.1	1	2311768	-14.48568	1.110084E-010	0.0255994	4
	42	59	63.3446	2324634	-550831	1	2389004	-13.33059	1.456066E-010	0.0255934	4
	43	60	49.86702	2397236	-667472.4	1	2488425	-15.55902	1.512521E-010	0.0255902	4
	44	62	39.72458	2458707	-670358.1	1	2548455	-15.25082	1.795754E-010	0.0255947	4
	45	63	31.6723	2550093	-709876.1	1	2647055	-15.55575	1.363603E-011	0.0255905	4
	46	65	24.93351	2633797	-757157.2	1	2740469	-16.03875	-2.555308E-010	0.0255977	4
	47	66	19.86229	2734005	-810122.7	1	2851505	-16.50527	9.288834E-010	0.0255925	4
	48	67	15.83615	2830031	-911121.2	1	2973082	-17.84583	1.258291E-010	0.0255919	4
	49	69	12.40079	2951304	-956036	1	3102289	-17.94904	-5.918E-010	0.0256006	4
	50	70	9.93114	3087692	-1039985	1	3258131	-18.61437	4.73556E-010	0.0255944	4
	51	72	7.944915	3239517	-1134042	1	3432277	-19.29337	1.792187E-010	0.025601	4
	52	73	6.317385	3408504	-1227994	1	3622964	-19.81275	7.792373E-011	0.0256109	4
	53	75	5.008013	3611189	-1313255	1	3842567	-19.98444	9.486145E-011	0.0255964	4
	54	78	3.945707	3845537	-1403903	1	4093787	-20.0558	-2.958898E-010	0.025604	4
	55	81	3.158693	4009577	-1446165	1	4262405	-19.83324	6.051579E-010	0.0256101	4
	56	84	2.504006	4262833	-1524682	1	4527295	-19.68054	1.395206E-010	0.0255927	4
	57	87	1.998082	4490517	-1583108	1	4761405	-19.41983	4.656125E-011	0.0256126	4
	58	90	1.584686	4719312	-1629571	1	4992736	-19.04971	1.358378E-010	0.0256475	4
	59	93	1.266892	4940736	-1697423	1	5224185	-18.9605	3.648164E-011	0.0256182	4
	60	98	0.999041	5191295	-1763072	1	5482514	-18.75856	1.895248E-010	0.0256065	4
