EXPLAIN
TAG	EISPOT
TITLE	LABEL	Potentiostatic EIS	Test &Identifier
DATE	LABEL	1/7/2020	Date
TIME	LABEL	17:31:57	Time
NOTES	NOTES	5	&Notes...
	
	
	
	
	
PSTAT	PSTAT	REF600-11020	Potentiostat
VDC	POTEN	0.00000E+000	T	DC &Voltage (V)
FREQINIT	QUANT	1.00000E+006	Initial Fre&q. (Hz)
FREQFINAL	QUANT	1.00000E+000	Final Fre&q. (Hz)
PTSPERDEC	QUANT	1.00000E+001	Points/&decade
VAC	QUANT	2.50000E+001	AC &Voltage (mV rms)
AREA	QUANT	1.00000E-001	&Area (cm^2)
CONDIT	TWOPARAM	T	5.00000E+000	0.00000E+000	Conditionin&g	Time(s)	E(V)
DELAY	TWOPARAM	T	5.00000E+000	0.00000E+000	Init. De&lay	Time(s)	Stab.(mV/s)
SPEED	SELECTOR	0	&Optimize for:
ZGUESS	QUANT	1.00000E+003	E&stimated Z (ohms)
OCVCURVE	TABLE	19
	Pt	T	Vf	Vm	Ach	Over
	#	s	V vs. Ref.	V	V	bits
	0	0.258333	3.31615E-003	3.31615E-003	6.76879E-004	...........
	1	0.516667	3.31091E-003	3.04164E-003	6.75179E-004	...........
	2	0.775	3.27928E-003	2.81128E-003	6.76112E-004	...........
	3	1.03333	3.19190E-003	2.60152E-003	6.76379E-004	...........
	4	1.29167	3.04088E-003	2.43612E-003	6.78612E-004	...........
	5	1.55	2.84923E-003	2.24655E-003	6.72679E-004	...........
	6	1.80833	2.64731E-003	2.06793E-003	6.78146E-004	...........
	7	2.06667	2.45270E-003	1.95486E-003	6.78546E-004	...........
	8	2.325	2.27352E-003	1.86910E-003	6.77146E-004	...........
	9	2.58333	2.11659E-003	1.76125E-003	6.77946E-004	...........
	10	2.84167	1.98419E-003	1.64829E-003	6.80612E-004	...........
	11	3.1	1.86942E-003	1.53108E-003	6.81579E-004	...........
	12	3.35833	1.76171E-003	1.44218E-003	6.79446E-004	...........
	13	3.61667	1.65559E-003	1.35157E-003	6.77812E-004	...........
	14	3.875	1.55220E-003	1.26964E-003	6.82546E-004	...........
	15	4.13333	1.45437E-003	1.18431E-003	6.81579E-004	...........
	16	4.39167	1.36296E-003	1.11455E-003	6.85212E-004	...........
	17	4.65	1.27731E-003	1.03784E-003	6.78979E-004	...........
	18	4.90833	1.19633E-003	9.55601E-004	6.77312E-004	...........
EOC	QUANT	0.0011963	Open Circuit (V)
PSTATMODEL	IQUANT	4	Pstat Model
PSTATSECTION	LABEL	REF600-11020	Pstat Section
PSTATSERIALNO	LABEL	11020	Pstat Serial Number
CTRLMODE	IQUANT	1	Control Mode
IESTAB	IQUANT	0	I/E Stability
CASPEED	IQUANT	1	Control Amp Speed
CONVENTION	IQUANT	1	Current Convention
ICHRANGE	IQUANT	2	Ich Range
ICHRANGEMODE	TOGGLE	F	Ich Auto Range
ICHOFFSETENABLE	TOGGLE	T	Ich Offset Enable
ICHOFFSET	QUANT	0	Ich Offset (V)
ICHFILTER	IQUANT	3	Ich Filter
VCHRANGE	IQUANT	2	Vch Range
VCHRANGEMODE	TOGGLE	F	Vch Auto Range
VCHOFFSETENABLE	TOGGLE	T	Vch Offset Enable
VCHOFFSET	QUANT	0	Vch Offset (V)
VCHFILTER	IQUANT	3	Vch Filter
ACHRANGE	IQUANT	2	Ach Range
ACHOFFSETENABLE	TOGGLE	F	Ach Offset Enable
ACHOFFSET	QUANT	0	Ach Offset (V)
ACHFILTER	IQUANT	3	Ach Filter
IERANGELOWERLIMIT	IQUANT	1	I/E Range Lower Limit
IERANGEMODE	TOGGLE	F	I/E AutoRange
IERANGE	IQUANT	6	I/E Range
POSFEEDENABLE	TOGGLE	F	Positive Feedback IR Comp
POSFEEDRESISTANCE	QUANT	0	Positive Feedback Resistance (ohm)
ACHSELECT	IQUANT	0	Ach Select
CABLEID	IQUANT	14	Cable ID
DCCALDATE	LABEL	12/22/2019	DC Calibration Date
ACCALDATE	LABEL	12/22/2019	AC Calibration Date
THERMOSELECT	IQUANT	1	Thermo Select
FRAMEWORKVERSION	QUANT	6.33	Framework Version
INSTRUMENTVERSION	LABEL	3.50	Instrument Version
ZCURVE	TABLE
	Pt	Time	Freq	Zreal	Zimag	Zsig	Zmod	Zphz	Idc	Vdc	IERange
	#	s	Hz	ohm	ohm	V	ohm	°	A	V	#
	0	1	1000078	1969.364	-1631.392	1	2557.31	-39.63784	-1.247763E-006	0.0048124	8
	1	2	794390.6	2225.908	-1711.173	1	2807.629	-37.55137	-1.035624E-005	0.0056443	8
	2	2	630984.4	2545.04	-1774.087	1	3102.356	-34.87944	-9.081922E-007	0.0038755	8
	3	2	501234.4	2866.901	-1808.319	1	3389.563	-32.24198	-7.873045E-006	0.0045742	8
	4	3	398109.4	3187.4	-1824.148	1	3672.47	-29.7825	-2.152925E-006	0.0036174	8
	5	3	316265.6	3479.519	-1786.115	1	3911.171	-27.17245	4.076692E-006	0.0018102	8
	6	3	251203.1	3813.78	-1750.969	1	4196.523	-24.66063	3.334188E-006	0.0018561	8
	7	4	199546.9	4045.094	-1710.374	1	4391.829	-22.91994	5.509336E-007	0.0028779	8
	8	4	158578.1	4371.439	-1711.352	1	4694.487	-21.37959	3.394429E-006	0.001882	8
	9	4	125953.1	4685.996	-1474.518	1	4912.51	-17.46695	-7.646955E-007	0.0043522	7
	10	4	100078.1	4894.992	-1389.641	1	5088.423	-15.84874	-5.607849E-008	0.0028613	7
	11	5	79453.13	5092.687	-1298.793	1	5255.694	-14.30723	-7.906932E-008	0.0029404	7
	12	5	63140.62	5272.468	-1214.503	1	5410.54	-12.97171	-3.544461E-008	0.002937	7
	13	5	50203.12	5427.246	-1137.945	1	5545.26	-11.84181	-2.038693E-010	0.0028792	7
	14	6	39890.62	5563.644	-1069.224	1	5665.454	-10.8785	-1.377289E-008	0.0028978	7
	15	6	31640.63	5689.79	-1013.262	1	5779.309	-10.09762	1.416577E-007	0.0025415	7
	16	6	25171.88	5800.986	-974.457	1	5882.262	-9.53559	-1.383385E-008	0.0028952	7
	17	7	20015.62	5909.48	-953.18	1	5985.859	-9.162704	5.07406E-008	0.0027818	7
	18	7	15890.62	6006.48	-946.0807	1	6080.533	-8.951118	5.363555E-008	0.0027819	7
	19	7	12609.37	6110.546	-954.979	1	6184.72	-8.882546	1.436983E-007	0.0025329	7
	20	8	10078.13	6211.101	-981.316	1	6288.144	-8.978171	1.118077E-009	0.0028698	7
	21	8	8015.625	6316.424	-1027.569	1	6399.462	-9.240053	1.035722E-009	0.0028655	7
	22	8	6328.125	6430.663	-1087.523	1	6521.973	-9.59877	-9.406832E-008	0.0028978	7
	23	9	5015.625	6550.964	-1169.714	1	6654.574	-10.12381	-4.573785E-008	0.0029919	7
	24	9	3984.375	6677.894	-1257.083	1	6795.184	-10.66091	1.464171E-007	0.0025458	7
	25	9	3170.956	6811.477	-1375.699	1	6949.012	-11.4183	-5.595049E-008	0.0028337	7
	26	10	2527.573	6943.078	-1512.287	1	7105.867	-12.2878	2.385403E-007	0.0024711	7
	27	10	1976.103	7099.411	-1686.57	1	7296.997	-13.36373	1.441451E-007	0.0025192	7
	28	10	1577.524	7229.192	-1872.07	1	7467.654	-14.51838	-5.4903E-008	0.002834	7
	29	10	1265.625	7371.07	-2124.995	1	7671.263	-16.08166	-3.595729E-008	0.0029182	7
	30	11	998.264	7515.969	-2439.797	1	7902.051	-17.98421	2.382623E-007	0.0024654	7
	31	11	796.875	7659.634	-2819.977	1	8162.247	-20.21173	-8.048195E-008	0.0028685	7
	32	11	627.7902	7813.992	-3339.118	1	8497.539	-23.13825	1.476482E-007	0.0025388	7
	33	12	505.5147	7959.87	-3932.573	1	8878.325	-26.29167	7.756971E-010	0.0028588	7
	34	12	397.9953	8142.304	-4731.61	1	9417.284	-30.16149	1.384593E-009	0.0028147	6
	35	12	315.5048	8344.467	-5722.766	1	10118.31	-34.44294	1.005128E-009	0.002817	6
	36	13	252.4038	8571.807	-6906.769	1	11008.15	-38.86028	1.458478E-009	0.002812	6
	37	13	198.6229	8870.958	-8487.082	1	12276.99	-43.7331	8.197096E-010	0.0028163	6
	38	13	158.3615	9221.084	-10341.22	1	13855.29	-48.27716	1.333124E-009	0.0028071	6
	39	14	125.558	9672.15	-12680.26	1	15948.02	-52.6646	1.115114E-009	0.0028107	6
	40	14	100.4464	10234.84	-15441.68	1	18525.59	-56.46333	7.707768E-010	0.002805	6
	41	14	79.00281	10985.13	-19105.27	1	22038.25	-60.10199	2.494702E-010	0.0028081	6
	42	15	63.3446	11786.5	-23096.24	1	25929.86	-62.96382	5.822715E-010	0.0028101	6
	43	15	49.86702	13091.26	-28507.7	1	31369.89	-65.33453	4.806161E-010	0.0028051	6
	44	15	39.72458	14621.5	-34854.35	1	37797.01	-67.24181	1.140865E-009	0.0028063	6
	45	16	31.6723	16527.46	-42429.62	1	45534.93	-68.71777	1.023942E-009	0.0028035	6
	46	16	24.93351	19148.29	-52122.54	1	55528.52	-69.82815	6.219859E-010	0.0028039	6
	47	16	19.86229	22355.26	-63301.36	1	67132.85	-70.54901	9.131133E-010	0.0028082	6
	48	17	15.83615	26019.55	-76854.31	1	81139.4	-71.29612	8.234187E-010	0.0028067	6
	49	17	12.40079	31702.03	-93968.11	1	99171.7	-71.35715	-2.578403E-010	0.0028094	6
	50	17	9.93114	37998.18	-113008.1	1	119225.4	-71.41514	-7.321933E-010	0.0027974	5
	51	18	7.944915	46070.91	-136086.7	1	143673.7	-71.29694	8.975713E-011	0.0028018	5
	52	18	6.317385	56346.14	-163707	1	173132.5	-71.0071	3.361589E-010	0.002795	5
	53	19	5.008013	69731.06	-197161.4	1	209129.2	-70.52258	3.903603E-010	0.0028063	5
	54	20	3.945707	87093.34	-237784.2	1	253232.3	-69.88371	1.6843E-010	0.0028005	5
	55	21	3.158693	107351.5	-282358.9	1	302077.7	-69.18345	1.189975E-010	0.0027843	5
	56	23	2.504006	134041.4	-336772.1	1	362467.3	-68.29655	3.602086E-010	0.0027915	5
	57	24	1.998082	164963.2	-396761.1	1	429688.5	-67.42369	2.137129E-010	0.0027896	5
	58	26	1.584686	205317.9	-469498.8	1	512430.1	-66.37962	1.379768E-010	0.0027553	5
	59	28	1.266892	250827.8	-550623.8	1	605062.9	-65.50912	1.46276E-010	0.0027676	5
	60	30	0.999041	309290.2	-648045	1	718068.8	-64.48642	1.48012E-010	0.0027812	5
