EXPLAIN
TAG	EISPOT
TITLE	LABEL	Potentiostatic EIS	Test &Identifier
DATE	LABEL	5/26/2020	Date
TIME	LABEL	17:49:50	Time
NOTES	NOTES	1	&Notes...
	
PSTAT	PSTAT	REF600-11020	Potentiostat
VDC	POTEN	0.00000E+000	T	DC &Voltage (V)
FREQINIT	QUANT	1.00000E+006	Initial Fre&q. (Hz)
FREQFINAL	QUANT	1.00000E+000	Final Fre&q. (Hz)
PTSPERDEC	QUANT	1.00000E+001	Points/&decade
VAC	QUANT	2.50000E+001	AC &Voltage (mV rms)
AREA	QUANT	5.00000E-004	&Area (cm^2)
CONDIT	TWOPARAM	F	5.00000E+000	0.00000E+000	Conditionin&g	Time(s)	E(V)
DELAY	TWOPARAM	T	3.00000E+000	0.00000E+000	Init. De&lay	Time(s)	Stab.(mV/s)
SPEED	SELECTOR	0	&Optimize for:
ZGUESS	QUANT	1.00000E+003	E&stimated Z (ohms)
OCVCURVE	TABLE	12
	Pt	T	Vf	Vm	Ach	Over
	#	s	V vs. Ref.	V	V	bits
	0	0.258333	8.72738E-002	8.72738E-002	6.56395E-004	...........
	1	0.516667	8.72731E-002	8.72364E-002	6.54695E-004	...........
	2	0.775	8.72688E-002	8.72044E-002	6.50562E-004	...........
	3	1.03333	8.72569E-002	8.71793E-002	6.54295E-004	...........
	4	1.29167	8.72364E-002	8.71480E-002	6.53662E-004	...........
	5	1.55	8.72101E-002	8.71265E-002	6.50129E-004	...........
	6	1.80833	8.71819E-002	8.71046E-002	6.48762E-004	...........
	7	2.06667	8.71547E-002	8.70840E-002	6.49862E-004	...........
	8	2.325	8.71298E-002	8.70610E-002	6.52895E-004	...........
	9	2.58333	8.71069E-002	8.70470E-002	6.51296E-004	...........
	10	2.84167	8.70856E-002	8.70294E-002	6.49796E-004	...........
	11	3.1	8.70661E-002	8.70166E-002	6.54729E-004	...........
EOC	QUANT	0.0870661	Open Circuit (V)
PSTATMODEL	IQUANT	4	Pstat Model
PSTATSECTION	LABEL	REF600-11020	Pstat Section
PSTATSERIALNO	LABEL	11020	Pstat Serial Number
CTRLMODE	IQUANT	1	Control Mode
IESTAB	IQUANT	0	I/E Stability
CASPEED	IQUANT	1	Control Amp Speed
CONVENTION	IQUANT	1	Current Convention
ICHRANGE	IQUANT	2	Ich Range
ICHRANGEMODE	TOGGLE	F	Ich Auto Range
ICHOFFSETENABLE	TOGGLE	T	Ich Offset Enable
ICHOFFSET	QUANT	0	Ich Offset (V)
ICHFILTER	IQUANT	3	Ich Filter
VCHRANGE	IQUANT	2	Vch Range
VCHRANGEMODE	TOGGLE	F	Vch Auto Range
VCHOFFSETENABLE	TOGGLE	T	Vch Offset Enable
VCHOFFSET	QUANT	0	Vch Offset (V)
VCHFILTER	IQUANT	3	Vch Filter
ACHRANGE	IQUANT	2	Ach Range
ACHOFFSETENABLE	TOGGLE	F	Ach Offset Enable
ACHOFFSET	QUANT	0	Ach Offset (V)
ACHFILTER	IQUANT	3	Ach Filter
IERANGELOWERLIMIT	IQUANT	1	I/E Range Lower Limit
IERANGEMODE	TOGGLE	F	I/E AutoRange
IERANGE	IQUANT	8	I/E Range
POSFEEDENABLE	TOGGLE	F	Positive Feedback IR Comp
POSFEEDRESISTANCE	QUANT	0	Positive Feedback Resistance (ohm)
ACHSELECT	IQUANT	0	Ach Select
CABLEID	IQUANT	14	Cable ID
DCCALDATE	LABEL	2/27/2020	DC Calibration Date
ACCALDATE	LABEL	2/27/2020	AC Calibration Date
THERMOSELECT	IQUANT	1	Thermo Select
FRAMEWORKVERSION	QUANT	6.33	Framework Version
INSTRUMENTVERSION	LABEL	3.50	Instrument Version
ZCURVE	TABLE
	Pt	Time	Freq	Zreal	Zimag	Zsig	Zmod	Zphz	Idc	Vdc	IERange
	#	s	Hz	ohm	ohm	V	ohm	°	A	V	#
	0	2	1000078	2168.284	-2347.675	1	3195.784	-47.27481	8.371119E-008	0.0893184	8
	1	2	794390.6	2644.216	-2503.92	1	3641.634	-43.43897	4.414295E-008	0.0889797	8
	2	2	630984.4	3159.214	-2577.295	1	4077.141	-39.20765	5.686089E-008	0.0888709	8
	3	2	501234.4	3684.541	-2574.015	1	4494.596	-34.93809	4.848657E-008	0.0887832	8
	4	3	398109.4	4182.96	-2480.238	1	4862.997	-30.66533	5.023487E-008	0.0887288	8
	5	3	316265.6	4630.999	-2329.768	1	5184.011	-26.7061	3.886145E-008	0.0886923	8
	6	3	251203.1	5017.769	-2139.196	1	5454.738	-23.08972	6.08284E-008	0.0887117	8
	7	4	199546.9	5338.463	-1929.741	1	5676.539	-19.87385	5.190663E-008	0.0886911	8
	8	4	158578.1	5597.87	-1730.209	1	5859.162	-17.17551	3.888841E-008	0.0886877	8
	9	4	125953.1	5850.036	-1462.682	1	6030.121	-14.03783	1.572063E-009	0.088632	7
	10	5	100078.1	5988.649	-1318.676	1	6132.114	-12.41813	3.526367E-009	0.0886232	7
	11	5	79453.13	6122.357	-1211.649	1	6241.102	-11.19451	2.902857E-009	0.0886216	7
	12	5	63140.62	6237.818	-1130.813	1	6339.488	-10.27518	3.045839E-009	0.088618	7
	13	6	50203.12	6340.693	-1076.857	1	6431.485	-9.63873	3.625141E-009	0.0886178	7
	14	6	39890.62	6436.123	-1048.542	1	6520.976	-9.253058	2.412625E-009	0.0886059	7
	15	6	31640.63	6529.243	-1046.175	1	6612.525	-9.10308	2.366058E-009	0.0886041	7
	16	7	25171.88	6622.115	-1070.282	1	6708.048	-9.180892	3.64656E-009	0.0886165	7
	17	7	20015.62	6716.296	-1119.885	1	6809.021	-9.466496	2.653296E-009	0.0886107	7
	18	7	15890.62	6815.904	-1196.616	1	6920.147	-9.95751	3.112402E-009	0.0886059	7
	19	8	12609.37	6925.117	-1303.83	1	7046.788	-10.66257	3.297116E-009	0.0886098	7
	20	8	10078.13	7037.602	-1436.266	1	7182.667	-11.53478	2.798938E-009	0.0886003	7
	21	8	8015.625	7165.804	-1607.085	1	7343.805	-12.64064	2.754236E-009	0.088606	7
	22	8	6328.125	7312.574	-1825.464	1	7536.979	-14.01648	2.675796E-009	0.0886049	7
	23	9	5015.625	7475.82	-2086.382	1	7761.5	-15.59357	4.026309E-009	0.0886075	7
	24	9	3984.375	7656.877	-2398.087	1	8023.627	-17.39024	3.867184E-009	0.088605	7
	25	9	3170.956	7860.753	-2769.188	1	8334.257	-19.40635	4.138507E-009	0.0886025	7
	26	10	2527.573	8090.49	-3209.423	1	8703.816	-21.63778	4.556357E-009	0.0886027	7
	27	10	1976.103	8375.961	-3781.548	1	9190.04	-24.29805	4.528229E-009	0.0885996	7
	28	10	1577.524	8689.396	-4392.33	1	9736.43	-26.81576	2.0423E-010	0.0886563	6
	29	11	1265.625	9022.146	-5121.083	1	10374.23	-29.57979	7.654508E-011	0.0886571	6
	30	11	998.264	9442.795	-6058.307	1	11219.16	-32.68341	-1.417425E-010	0.0886505	6
	31	11	796.875	9896.94	-7120.737	1	12192.38	-35.7346	-1.412934E-010	0.0886492	6
	32	12	627.7902	10447.22	-8461.525	1	13444.03	-39.00508	4.208285E-010	0.088649	6
	33	12	505.5147	11024.95	-9916.52	1	14828.58	-41.97018	-6.660048E-011	0.0886535	6
	34	12	397.9953	11754.89	-11846.81	1	16689.05	-45.22313	5.503644E-010	0.0886713	6
	35	13	315.5048	12577.16	-14116.19	1	18906.39	-48.2998	5.876006E-010	0.088669	6
	36	13	252.4038	13493.56	-16746.49	1	21506.31	-51.13971	5.321306E-010	0.088666	6
	37	13	198.6229	14654.48	-20171.7	1	24932.94	-54.00209	5.339027E-010	0.0886696	6
	38	14	158.3615	15966.18	-24106.79	1	28914.63	-56.48307	5.129639E-010	0.0886632	6
	39	14	125.558	17591.73	-28989.19	1	33909.33	-58.74905	5.02466E-010	0.088665	6
	40	14	100.4464	19498.73	-34651.45	1	39760.83	-60.63309	4.850549E-010	0.0886676	6
	41	15	79.00281	22050.44	-42013.16	1	47448.16	-62.30745	3.69111E-010	0.0886618	6
	42	15	63.3446	24972.97	-50150.56	1	56024.35	-63.52853	4.374404E-010	0.0886624	6
	43	15	49.86702	28930.2	-60694.07	1	67236.35	-64.51491	3.606332E-010	0.0886619	6
	44	16	39.72458	33657.53	-72676.02	1	80091.41	-65.15032	4.483592E-010	0.0886652	6
	45	16	31.6723	39543.71	-86824.48	1	95405.4	-65.51338	3.150504E-010	0.0886647	6
	46	16	24.93351	47404.27	-104436.2	1	114691.3	-65.58639	4.844457E-010	0.0886678	5
	47	17	19.86229	56761.49	-124287.5	1	136635.5	-65.45406	9.802399E-010	0.0886755	5
	48	17	15.83615	68549.24	-147571.7	1	162715.7	-65.08443	-4.297347E-010	0.0886664	5
	49	17	12.40079	84778.73	-176505.3	1	195810	-64.34417	2.976613E-010	0.0886772	5
	50	17	9.93114	103225.8	-206858.4	1	231183.9	-63.48003	-3.499331E-011	0.0886772	5
	51	18	7.944915	125887.5	-240761.2	1	271686.6	-62.39614	-6.973855E-010	0.088671	5
	52	18	6.317385	154710.4	-279847.2	1	319765.2	-61.06449	2.267404E-010	0.0886557	5
	53	19	5.008013	189808.1	-323294.4	1	374895.2	-59.58254	1.167179E-010	0.08866	5
	54	20	3.945707	231633.4	-372098.2	1	438304.8	-58.09748	-1.227275E-010	0.0886645	5
	55	21	3.158693	276774	-420499	1	503411.6	-56.64694	1.358051E-010	0.0886547	5
	56	22	2.504006	329268.5	-476446.6	1	579153.8	-55.35195	2.810247E-010	0.0886595	5
	57	23	1.998082	385131.5	-534341.8	1	658670.9	-54.2175	7.730393E-011	0.0886269	5
	58	25	1.584686	448480	-603524.1	1	751914.7	-53.38388	1.036576E-011	0.0886116	5
	59	27	1.266892	513459.4	-677894.7	1	850400.9	-52.85853	3.800268E-011	0.0886394	5
	60	29	0.999041	590728.3	-768052.4	1	968950	-52.43522	5.402913E-011	0.0886702	5
