EXPLAIN
TAG	EISPOT
TITLE	LABEL	Potentiostatic EIS	Test &Identifier
DATE	LABEL	5/26/2020	Date
TIME	LABEL	17:38:22	Time
NOTES	NOTES	1	&Notes...
	
PSTAT	PSTAT	REF600-11020	Potentiostat
VDC	POTEN	0.00000E+000	T	DC &Voltage (V)
FREQINIT	QUANT	1.00000E+006	Initial Fre&q. (Hz)
FREQFINAL	QUANT	1.00000E+000	Final Fre&q. (Hz)
PTSPERDEC	QUANT	1.00000E+001	Points/&decade
VAC	QUANT	2.50000E+001	AC &Voltage (mV rms)
AREA	QUANT	5.00000E-004	&Area (cm^2)
CONDIT	TWOPARAM	F	5.00000E+000	0.00000E+000	Conditionin&g	Time(s)	E(V)
DELAY	TWOPARAM	T	3.00000E+000	0.00000E+000	Init. De&lay	Time(s)	Stab.(mV/s)
SPEED	SELECTOR	0	&Optimize for:
ZGUESS	QUANT	1.00000E+003	E&stimated Z (ohms)
OCVCURVE	TABLE	12
	Pt	T	Vf	Vm	Ach	Over
	#	s	V vs. Ref.	V	V	bits
	0	0.258333	1.91104E-002	1.91104E-002	5.54464E-004	...........
	1	0.516667	1.91105E-002	1.91118E-002	5.54197E-004	...........
	2	0.775	1.91106E-002	1.91104E-002	5.54397E-004	...........
	3	1.03333	1.91107E-002	1.91088E-002	5.58164E-004	...........
	4	1.29167	1.91106E-002	1.91062E-002	5.51030E-004	...........
	5	1.55	1.91099E-002	1.91062E-002	5.58930E-004	...........
	6	1.80833	1.91085E-002	1.90956E-002	5.57930E-004	...........
	7	2.06667	1.91062E-002	1.90937E-002	5.54764E-004	...........
	8	2.325	1.91028E-002	1.90878E-002	5.55997E-004	...........
	9	2.58333	1.90983E-002	1.90838E-002	5.57364E-004	...........
	10	2.84167	1.90936E-002	1.90825E-002	5.55964E-004	...........
	11	3.1	1.90892E-002	1.90802E-002	5.47597E-004	...........
EOC	QUANT	0.0190892	Open Circuit (V)
PSTATMODEL	IQUANT	4	Pstat Model
PSTATSECTION	LABEL	REF600-11020	Pstat Section
PSTATSERIALNO	LABEL	11020	Pstat Serial Number
CTRLMODE	IQUANT	1	Control Mode
IESTAB	IQUANT	0	I/E Stability
CASPEED	IQUANT	1	Control Amp Speed
CONVENTION	IQUANT	1	Current Convention
ICHRANGE	IQUANT	2	Ich Range
ICHRANGEMODE	TOGGLE	F	Ich Auto Range
ICHOFFSETENABLE	TOGGLE	T	Ich Offset Enable
ICHOFFSET	QUANT	0	Ich Offset (V)
ICHFILTER	IQUANT	3	Ich Filter
VCHRANGE	IQUANT	2	Vch Range
VCHRANGEMODE	TOGGLE	F	Vch Auto Range
VCHOFFSETENABLE	TOGGLE	T	Vch Offset Enable
VCHOFFSET	QUANT	0	Vch Offset (V)
VCHFILTER	IQUANT	3	Vch Filter
ACHRANGE	IQUANT	2	Ach Range
ACHOFFSETENABLE	TOGGLE	F	Ach Offset Enable
ACHOFFSET	QUANT	0	Ach Offset (V)
ACHFILTER	IQUANT	3	Ach Filter
IERANGELOWERLIMIT	IQUANT	1	I/E Range Lower Limit
IERANGEMODE	TOGGLE	F	I/E AutoRange
IERANGE	IQUANT	7	I/E Range
POSFEEDENABLE	TOGGLE	F	Positive Feedback IR Comp
POSFEEDRESISTANCE	QUANT	0	Positive Feedback Resistance (ohm)
ACHSELECT	IQUANT	0	Ach Select
CABLEID	IQUANT	14	Cable ID
DCCALDATE	LABEL	2/27/2020	DC Calibration Date
ACCALDATE	LABEL	2/27/2020	AC Calibration Date
THERMOSELECT	IQUANT	1	Thermo Select
FRAMEWORKVERSION	QUANT	6.33	Framework Version
INSTRUMENTVERSION	LABEL	3.50	Instrument Version
ZCURVE	TABLE
	Pt	Time	Freq	Zreal	Zimag	Zsig	Zmod	Zphz	Idc	Vdc	IERange
	#	s	Hz	ohm	ohm	V	ohm	°	A	V	#
	0	2	1000078	1873.901	-2199.493	1	2889.511	-49.57002	5.26194E-008	0.0214441	8
	1	2	794390.6	2182.881	-2412.055	1	3253.149	-47.85529	8.012246E-008	0.0211055	8
	2	2	630984.4	2508.156	-2633.515	1	3636.791	-46.39666	1.892749E-008	0.0209937	8
	3	2	501234.4	2844.025	-2878.736	1	4046.678	-45.34752	8.02056E-008	0.020901	8
	4	3	398109.4	3201.991	-3164.869	1	4502.126	-44.66594	6.824447E-008	0.0208274	8
	5	3	316265.6	3583.24	-3497.994	1	5007.552	-44.31029	4.694311E-008	0.0207991	8
	6	3	251203.1	4012.391	-3877.085	1	5579.523	-44.01746	3.135377E-008	0.0208212	8
	7	4	199546.9	4495.309	-4324.925	1	6238.01	-43.89333	6.871056E-008	0.020808	8
	8	4	158578.1	5059.096	-4854.831	1	7011.693	-43.81966	4.611256E-008	0.0207886	8
	9	4	125953.1	5841.701	-5355.12	1	7924.82	-42.51166	1.508778E-009	0.0207407	7
	10	5	100078.1	6599.515	-5974.938	1	8902.442	-42.15643	5.106277E-009	0.0207232	7
	11	5	79453.13	7529.698	-6652.195	1	10047.29	-41.45934	4.745909E-009	0.0207151	7
	12	5	63140.62	8616.626	-7310.796	1	11300.18	-40.31301	4.041752E-009	0.020712	7
	13	6	50203.12	9885.09	-7928.732	1	12672.01	-38.73275	4.02926E-009	0.0207072	7
	14	6	39890.62	11325.2	-8450.48	1	14130.49	-36.72906	3.92971E-009	0.0207058	7
	15	6	31640.63	12931.88	-8850.806	1	15670.69	-34.38841	5.157848E-009	0.0207041	7
	16	7	25171.88	14590.65	-9018.973	1	17153.1	-31.72161	3.992692E-009	0.0207046	7
	17	7	20015.62	16293.03	-9024.991	1	18625.61	-28.98283	4.683563E-009	0.0207014	7
	18	7	15890.62	17945.92	-8785.016	1	19980.81	-26.083	4.942042E-009	0.0206996	7
	19	8	12609.37	19663.99	-8094.775	1	21264.94	-22.37475	6.71761E-010	0.0207544	6
	20	8	10078.13	20930.4	-7601.564	1	22268.04	-19.96016	6.209666E-010	0.0207508	6
	21	8	8015.625	22035.42	-7061.744	1	23139.31	-17.76922	6.106501E-010	0.0207512	6
	22	8	6328.125	22981.47	-6511.826	1	23886.23	-15.82014	7.584782E-010	0.020749	6
	23	9	5015.625	23745.63	-6051.272	1	24504.55	-14.2968	5.72831E-010	0.0207516	6
	24	9	3984.375	24380.54	-5698.933	1	25037.74	-13.15662	7.378483E-010	0.0207554	6
	25	9	3170.956	24921.36	-5477.469	1	25516.21	-12.39595	4.44053E-010	0.0207476	6
	26	10	2527.573	25401.25	-5390.147	1	25966.84	-11.98046	7.103396E-010	0.0207446	6
	27	10	1976.103	25895.7	-5450.396	1	26463.07	-11.88584	5.315625E-010	0.0207473	6
	28	10	1577.524	26361.58	-5655.536	1	26961.41	-12.10853	4.86399E-010	0.0207403	6
	29	11	1265.625	26780.51	-5995.715	1	27443.47	-12.61948	5.695361E-010	0.0207373	6
	30	11	998.264	27273.15	-6519.959	1	28041.66	-13.44488	2.700686E-010	0.0207336	6
	31	11	796.875	27800.77	-7191.628	1	28715.89	-14.5036	2.18863E-010	0.0207384	6
	32	12	627.7902	28372.68	-8106.307	1	29507.98	-15.94507	4.070565E-010	0.0207399	6
	33	12	505.5147	28942.23	-9142.655	1	30351.95	-17.53097	3.365322E-010	0.0207391	6
	34	12	397.9953	29612.83	-10556.83	1	31438.29	-19.6209	5.712292E-010	0.0207535	6
	35	13	315.5048	30321.94	-12269.28	1	32710.17	-22.02991	5.498218E-010	0.0207497	6
	36	13	252.4038	31117.75	-14296.81	1	34244.9	-24.67606	5.282552E-010	0.0207497	6
	37	13	198.6229	32067.54	-16984.89	1	36287.93	-27.90837	5.384092E-010	0.0207522	6
	38	14	158.3615	33084.5	-20109.97	1	38716.86	-31.29277	4.417453E-010	0.0207518	6
	39	14	125.558	34305.17	-24034.69	1	41886.88	-35.01563	4.644413E-010	0.0207475	6
	40	14	100.4464	35713.98	-28628.38	1	45771.96	-38.71572	2.981956E-010	0.0207479	6
	41	15	79.00281	37526.06	-34655.98	1	51080.74	-42.72302	3.805667E-010	0.0207465	6
	42	15	63.3446	39551.39	-41392.89	1	57251.07	-46.30326	3.242996E-010	0.0207451	6
	43	15	49.86702	42181.81	-50252.02	1	65609.23	-49.98973	4.700218E-010	0.0207417	6
	44	16	39.72458	45224.98	-60476.96	1	75516.63	-53.21068	4.699818E-010	0.0207462	6
	45	16	31.6723	48952.3	-72801.95	1	87729.42	-56.08296	4.293058E-010	0.0207457	6
	46	16	24.93351	53841.58	-88539.97	1	103625.5	-58.69601	1.333087E-010	0.0207446	5
	47	17	19.86229	59694.19	-106845.1	1	122389.9	-60.80798	-1.917527E-010	0.0207458	5
	48	17	15.83615	67024.22	-128747.8	1	145149.1	-62.49918	5.985848E-010	0.020745	5
	49	17	12.40079	77246.94	-157369.8	1	175306.4	-63.85531	2.860989E-010	0.0207495	5
	50	17	9.93114	89284.59	-188565.2	1	208635	-64.6627	4.710407E-010	0.020752	5
	51	18	7.944915	104662.2	-225610.1	1	248704.8	-65.11308	5.652555E-010	0.0207407	5
	52	18	6.317385	125380.9	-270490.9	1	298137.1	-65.13082	1.303644E-010	0.020749	5
	53	19	5.008013	152710.8	-323651.4	1	357869.8	-64.74032	2.338926E-010	0.0207473	5
	54	20	3.945707	189161.4	-386923.4	1	430687.5	-63.94664	2.340403E-010	0.0207345	5
	55	21	3.158693	232126.4	-453311.5	1	509287.7	-62.88446	1.837368E-010	0.0207509	5
	56	22	2.504006	289038.1	-530742.8	1	604343.4	-61.42765	-9.463509E-012	0.0207411	5
	57	23	1.998082	355296.1	-611407.2	1	707145	-59.83862	6.910417E-011	0.0207431	5
	58	25	1.584686	440120.7	-701400.3	1	828051.1	-57.89219	1.602825E-010	0.020781	5
	59	27	1.266892	533653.2	-794352.2	1	956965	-56.10643	1.681228E-010	0.0207627	5
	60	29	0.999041	647910.3	-896559.4	1	1106168	-54.14575	1.488137E-010	0.0207365	4
