EXPLAIN
TAG	EISPOT
TITLE	LABEL	Potentiostatic EIS	Test &Identifier
DATE	LABEL	1/14/2020	Date
TIME	LABEL	18:03:35	Time
NOTES	NOTES	5	&Notes...
	
	
	
	
	
PSTAT	PSTAT	REF600-11020	Potentiostat
VDC	POTEN	0.00000E+000	T	DC &Voltage (V)
FREQINIT	QUANT	1.00000E+006	Initial Fre&q. (Hz)
FREQFINAL	QUANT	1.00000E+000	Final Fre&q. (Hz)
PTSPERDEC	QUANT	1.00000E+001	Points/&decade
VAC	QUANT	2.50000E+001	AC &Voltage (mV rms)
AREA	QUANT	1.00000E-001	&Area (cm^2)
CONDIT	TWOPARAM	T	5.00000E+000	0.00000E+000	Conditionin&g	Time(s)	E(V)
DELAY	TWOPARAM	T	5.00000E+000	0.00000E+000	Init. De&lay	Time(s)	Stab.(mV/s)
SPEED	SELECTOR	1	&Optimize for:
ZGUESS	QUANT	5.00000E+002	E&stimated Z (ohms)
OCVCURVE	TABLE	19
	Pt	T	Vf	Vm	Ach	Over
	#	s	V vs. Ref.	V	V	bits
	0	0.258333	1.11605E-002	1.11605E-002	6.39613E-004	...........
	1	0.516667	1.11613E-002	1.11986E-002	6.34780E-004	...........
	2	0.775	1.11598E-002	1.09261E-002	6.42280E-004	...........
	3	1.03333	1.11427E-002	1.10025E-002	6.45113E-004	...........
	4	1.29167	1.11029E-002	1.11152E-002	6.39480E-004	...........
	5	1.55	1.10753E-002	1.17210E-002	6.39446E-004	...........
	6	1.80833	1.11276E-002	1.18478E-002	6.38080E-004	...........
	7	2.06667	1.12859E-002	1.16013E-002	6.42546E-004	...........
	8	2.325	1.14819E-002	1.16755E-002	6.39613E-004	...........
	9	2.58333	1.16295E-002	1.21282E-002	6.44580E-004	...........
	10	2.84167	1.17416E-002	1.26810E-002	6.44313E-004	...........
	11	3.1	1.19139E-002	1.31398E-002	6.41480E-004	...........
	12	3.35833	1.22051E-002	1.32814E-002	6.36846E-004	...........
	13	3.61667	1.25653E-002	1.29960E-002	6.40280E-004	...........
	14	3.875	1.28790E-002	1.33282E-002	6.40046E-004	...........
	15	4.13333	1.30805E-002	1.34725E-002	6.37513E-004	...........
	16	4.39167	1.32064E-002	1.36337E-002	6.40513E-004	...........
	17	4.65	1.33270E-002	1.39260E-002	6.34746E-004	...........
	18	4.90833	1.34843E-002	1.43888E-002	6.35680E-004	...........
EOC	QUANT	0.0134843	Open Circuit (V)
PSTATMODEL	IQUANT	4	Pstat Model
PSTATSECTION	LABEL	REF600-11020	Pstat Section
PSTATSERIALNO	LABEL	11020	Pstat Serial Number
CTRLMODE	IQUANT	1	Control Mode
IESTAB	IQUANT	0	I/E Stability
CASPEED	IQUANT	1	Control Amp Speed
CONVENTION	IQUANT	1	Current Convention
ICHRANGE	IQUANT	2	Ich Range
ICHRANGEMODE	TOGGLE	F	Ich Auto Range
ICHOFFSETENABLE	TOGGLE	T	Ich Offset Enable
ICHOFFSET	QUANT	0	Ich Offset (V)
ICHFILTER	IQUANT	3	Ich Filter
VCHRANGE	IQUANT	2	Vch Range
VCHRANGEMODE	TOGGLE	F	Vch Auto Range
VCHOFFSETENABLE	TOGGLE	T	Vch Offset Enable
VCHOFFSET	QUANT	0	Vch Offset (V)
VCHFILTER	IQUANT	3	Vch Filter
ACHRANGE	IQUANT	2	Ach Range
ACHOFFSETENABLE	TOGGLE	F	Ach Offset Enable
ACHOFFSET	QUANT	0	Ach Offset (V)
ACHFILTER	IQUANT	3	Ach Filter
IERANGELOWERLIMIT	IQUANT	1	I/E Range Lower Limit
IERANGEMODE	TOGGLE	F	I/E AutoRange
IERANGE	IQUANT	7	I/E Range
POSFEEDENABLE	TOGGLE	F	Positive Feedback IR Comp
POSFEEDRESISTANCE	QUANT	0	Positive Feedback Resistance (ohm)
ACHSELECT	IQUANT	0	Ach Select
CABLEID	IQUANT	14	Cable ID
DCCALDATE	LABEL	12/22/2019	DC Calibration Date
ACCALDATE	LABEL	12/22/2019	AC Calibration Date
THERMOSELECT	IQUANT	1	Thermo Select
FRAMEWORKVERSION	QUANT	6.33	Framework Version
INSTRUMENTVERSION	LABEL	3.50	Instrument Version
ZCURVE	TABLE
	Pt	Time	Freq	Zreal	Zimag	Zsig	Zmod	Zphz	Idc	Vdc	IERange
	#	s	Hz	ohm	ohm	V	ohm	°	A	V	#
	0	1	1000078	2220.238	-2209.478	1	3132.291	-44.86082	-3.221305E-006	0.0159994	8
	1	3	794390.6	2627.716	-2355.254	1	3528.755	-41.87026	2.987594E-006	0.0149535	8
	2	4	630984.4	3043.933	-2437.29	1	3899.476	-38.6844	-3.073989E-007	0.0153136	8
	3	5	501234.4	3503.202	-2500.33	1	4303.96	-35.51647	-6.120715E-007	0.0153106	8
	4	7	398109.4	3956.736	-2512.679	1	4687.143	-32.41711	-1.29328E-006	0.0153159	8
	5	8	316265.6	4403.822	-2483.583	1	5055.872	-29.42129	1.57107E-006	0.0148157	8
	6	10	251203.1	4840.912	-2444.39	1	5423.05	-26.79123	-6.475337E-007	0.015202	8
	7	11	199546.9	5249.437	-2303.376	1	5732.55	-23.69116	-1.241138E-006	0.0152702	8
	8	13	158578.1	5632.978	-2159.429	1	6032.708	-20.97456	1.36989E-006	0.014844	8
	9	14	125953.1	5992.419	-1956.835	1	6303.831	-18.08454	9.014013E-007	0.0134279	7
	10	16	100078.1	6267.844	-1789.274	1	6518.233	-15.93239	5.521152E-008	0.0149691	7
	11	17	79453.13	6512.76	-1632.288	1	6714.194	-14.07017	-4.351142E-008	0.015122	7
	12	18	63140.62	6719.495	-1481.559	1	6880.889	-12.43401	-1.006429E-009	0.0150742	7
	13	20	50203.12	6889.945	-1348.213	1	7020.614	-11.07164	-4.063876E-009	0.0150083	7
	14	21	39890.62	7040.359	-1236.695	1	7148.151	-9.96282	7.292557E-010	0.0150691	7
	15	23	31640.63	7164.589	-1143.211	1	7255.224	-9.065925	-1.567405E-008	0.0150494	7
	16	24	25171.88	7269.466	-1078.463	1	7349.028	-8.438579	-2.6328E-008	0.0150636	7
	17	25	20015.62	7367.838	-1036.872	1	7440.44	-8.010595	5.50792E-008	0.0149566	7
	18	27	15890.62	7450.433	-1032.524	1	7521.639	-7.89012	-1.72224E-008	0.0150686	7
	19	28	12609.37	7537.655	-1048.226	1	7610.192	-7.917076	5.62073E-008	0.0149561	7
	20	29	10078.13	7618.971	-1103.174	1	7698.423	-8.238773	1.113234E-009	0.0150732	7
	21	31	8015.625	7697.7	-1190.73	1	7789.25	-8.79319	-4.163883E-008	0.0151093	7
	22	32	6328.125	7780.171	-1304.394	1	7888.758	-9.51748	-3.969797E-009	0.015063	7
	23	33	5015.625	7866.41	-1467.8	1	8002.177	-10.56933	-1.557826E-008	0.0150376	7
	24	35	3984.375	7971.98	-1682.818	1	8147.659	-11.91967	3.40038E-008	0.0149438	7
	25	36	3170.956	8070.981	-1941.274	1	8301.162	-13.52418	9.968557E-008	0.0148964	7
	26	37	2527.573	8191.333	-2270.756	1	8500.251	-15.49414	5.669894E-008	0.0150128	7
	27	39	1976.103	8335.751	-2716.473	1	8767.21	-18.04987	3.364909E-008	0.0150045	7
	28	40	1577.524	8500.456	-3207.32	1	9085.409	-20.67207	-2.216352E-008	0.0151252	7
	29	41	1265.625	8673.292	-3817.776	1	9476.36	-23.75795	-4.874044E-009	0.015078	6
	30	43	998.264	8894.572	-4612.912	1	10019.6	-27.4122	2.597518E-009	0.0150636	6
	31	44	796.875	9152.704	-5531.857	1	10694.55	-31.1486	5.891422E-010	0.0151119	6
	32	46	627.7902	9479.745	-6723.439	1	11621.97	-35.34589	-5.871976E-009	0.0151168	6
	33	47	505.5147	9839.97	-8035.058	1	12703.83	-39.23415	1.45189E-009	0.0150629	6
	34	48	397.9953	10322.55	-9786.92	1	14224.59	-43.47427	6.950873E-010	0.0150482	6
	35	50	315.5048	10891.04	-11861.6	1	16103.17	-47.44258	6.577452E-010	0.0150517	6
	36	51	252.4038	11557.2	-14272.82	1	18365.24	-51.00169	9.017652E-010	0.0150472	6
	37	52	198.6229	12422.64	-17414.29	1	21391.1	-54.4975	7.314283E-010	0.0150453	6
	38	54	158.3615	13424.05	-21024.91	1	24944.98	-57.44247	9.460236E-010	0.0150402	6
	39	55	125.558	14674.88	-25506.74	1	29426.96	-60.08675	8.407738E-010	0.0150392	6
	40	56	100.4464	16154.46	-30727.46	1	34715.18	-62.26758	1.142036E-009	0.0150392	6
	41	58	79.00281	18118.96	-37555.72	1	41698.07	-64.24477	6.799964E-010	0.0150401	6
	42	59	63.3446	20354.1	-45051.82	1	49436.38	-65.68688	7.248049E-010	0.0150421	6
	43	61	49.86702	23668.93	-55423.53	1	60265.96	-66.87482	4.279004E-010	0.0150383	6
	44	62	39.72458	27422.61	-66970.65	1	72367.59	-67.73227	1.182079E-009	0.0150445	6
	45	63	31.6723	32615.05	-80858.91	1	87188.91	-68.03295	7.231276E-010	0.0150406	6
	46	65	24.93351	39569.15	-98255.2	1	105923.5	-68.06445	-9.782E-010	0.015034	5
	47	66	19.86229	48563.65	-117796.7	1	127414.6	-67.59528	1.784463E-009	0.0150316	5
	48	67	15.83615	60117.5	-141245.1	1	153506.7	-66.94417	4.553483E-010	0.0150355	5
	49	69	12.40079	75805.27	-168962.2	1	185188.2	-65.8365	1.295693E-009	0.0150348	5
	50	70	9.93114	95236.6	-198179.4	1	219875.2	-64.33304	7.302179E-010	0.0150266	5
	51	72	7.944915	119229.9	-230506.6	1	259517	-62.64967	-3.405058E-010	0.0150291	5
	52	73	6.317385	148459.5	-266661.2	1	305202.2	-60.89381	4.241901E-011	0.0150284	5
	53	75	5.008013	184681.7	-305764.8	1	357210.6	-58.86806	-2.415452E-010	0.0150327	5
	54	78	3.945707	227486.9	-347944.9	1	415711.4	-56.82328	8.7785E-011	0.0150349	5
	55	81	3.158693	272438.5	-389153.2	1	475039.9	-55.00489	-1.27277E-010	0.0150246	5
	56	84	2.504006	324448.4	-433488.5	1	541460.1	-53.18665	3.26665E-010	0.015051	5
	57	87	1.998082	378659.2	-481654.3	1	612677.5	-51.82685	2.189629E-010	0.0150473	5
	58	90	1.584686	436994.7	-534752.3	1	690597.1	-50.74462	4.049473E-011	0.0149893	5
	59	93	1.266892	494308.3	-592443.9	1	771576.6	-50.15992	3.545574E-010	0.0150497	5
	60	98	0.999041	562628.2	-666880.1	1	872513.4	-49.84661	-2.116473E-010	0.0150068	5
